Created as New Dataset,Sample 019 By Analyst Date Thursday, March 27 2025
cm-1,A
4000.00,-0.0023
3999.00,-0.0023
3998.00,-0.0023
3997.00,-0.0023
3996.00,-0.0023
3995.00,-0.0023
3994.00,-0.0023
3993.00,-0.0023
3992.00,-0.0022
3991.00,-0.0022
3990.00,-0.0022
3989.00,-0.0022
3988.00,-0.0022
3987.00,-0.0022
3986.00,-0.0022
3985.00,-0.0022
3984.00,-0.0022
3983.00,-0.0022
3982.00,-0.0022
3981.00,-0.0022
3980.00,-0.0022
3979.00,-0.0022
3978.00,-0.0022
3977.00,-0.0022
3976.00,-0.0022
3975.00,-0.0022
3974.00,-0.0022
3973.00,-0.0022
3972.00,-0.0022
3971.00,-0.0022
3970.00,-0.0022
3969.00,-0.0022
3968.00,-0.0022
3967.00,-0.0022
3966.00,-0.0022
3965.00,-0.0022
3964.00,-0.0022
3963.00,-0.0022
3962.00,-0.0022
3961.00,-0.0022
3960.00,-0.0022
3959.00,-0.0022
3958.00,-0.0022
3957.00,-0.0022
3956.00,-0.0022
3955.00,-0.0022
3954.00,-0.0022
3953.00,-0.0022
3952.00,-0.0022
3951.00,-0.0022
3950.00,-0.0022
3949.00,-0.0022
3948.00,-0.0022
3947.00,-0.0022
3946.00,-0.0022
3945.00,-0.0021
3944.00,-0.0021
3943.00,-0.0021
3942.00,-0.0021
3941.00,-0.0022
3940.00,-0.0022
3939.00,-0.0022
3938.00,-0.0022
3937.00,-0.0021
3936.00,-0.0021
3935.00,-0.0021
3934.00,-0.0021
3933.00,-0.0021
3932.00,-0.0021
3931.00,-0.0021
3930.00,-0.0021
3929.00,-0.0021
3928.00,-0.0021
3927.00,-0.0021
3926.00,-0.0021
3925.00,-0.0021
3924.00,-0.0021
3923.00,-0.0021
3922.00,-0.0021
3921.00,-0.0021
3920.00,-0.0021
3919.00,-0.0021
3918.00,-0.0021
3917.00,-0.0021
3916.00,-0.0021
3915.00,-0.0021
3914.00,-0.0021
3913.00,-0.0022
3912.00,-0.0022
3911.00,-0.0022
3910.00,-0.0022
3909.00,-0.0022
3908.00,-0.0022
3907.00,-0.0022
3906.00,-0.0022
3905.00,-0.0022
3904.00,-0.0021
3903.00,-0.0021
3902.00,-0.0021
3901.00,-0.0021
3900.00,-0.0021
3899.00,-0.0021
3898.00,-0.0021
3897.00,-0.0021
3896.00,-0.0021
3895.00,-0.0021
3894.00,-0.0021
3893.00,-0.0021
3892.00,-0.0021
3891.00,-0.0021
3890.00,-0.0021
3889.00,-0.0021
3888.00,-0.0021
3887.00,-0.0021
3886.00,-0.0021
3885.00,-0.0021
3884.00,-0.0021
3883.00,-0.0021
3882.00,-0.0021
3881.00,-0.0021
3880.00,-0.0021
3879.00,-0.0021
3878.00,-0.0021
3877.00,-0.0021
3876.00,-0.0021
3875.00,-0.0021
3874.00,-0.0021
3873.00,-0.0021
3872.00,-0.0021
3871.00,-0.0021
3870.00,-0.0021
3869.00,-0.0021
3868.00,-0.0021
3867.00,-0.0022
3866.00,-0.0022
3865.00,-0.0021
3864.00,-0.0021
3863.00,-0.0021
3862.00,-0.0021
3861.00,-0.0021
3860.00,-0.0021
3859.00,-0.0021
3858.00,-0.0021
3857.00,-0.0022
3856.00,-0.0023
3855.00,-0.0023
3854.00,-0.0023
3853.00,-0.0023
3852.00,-0.0023
3851.00,-0.0023
3850.00,-0.0023
3849.00,-0.0022
3848.00,-0.0022
3847.00,-0.0021
3846.00,-0.0021
3845.00,-0.0021
3844.00,-0.0021
3843.00,-0.0021
3842.00,-0.0021
3841.00,-0.0021
3840.00,-0.0021
3839.00,-0.0022
3838.00,-0.0022
3837.00,-0.0022
3836.00,-0.0022
3835.00,-0.0022
3834.00,-0.0022
3833.00,-0.0022
3832.00,-0.0022
3831.00,-0.0021
3830.00,-0.0021
3829.00,-0.0021
3828.00,-0.0021
3827.00,-0.0021
3826.00,-0.0021
3825.00,-0.0021
3824.00,-0.0021
3823.00,-0.0022
3822.00,-0.0022
3821.00,-0.0022
3820.00,-0.0022
3819.00,-0.0022
3818.00,-0.0023
3817.00,-0.0023
3816.00,-0.0022
3815.00,-0.0022
3814.00,-0.0022
3813.00,-0.0022
3812.00,-0.0022
3811.00,-0.0022
3810.00,-0.0022
3809.00,-0.0022
3808.00,-0.0022
3807.00,-0.0022
3806.00,-0.0022
3805.00,-0.0022
3804.00,-0.0023
3803.00,-0.0023
3802.00,-0.0023
3801.00,-0.0022
3800.00,-0.0022
3799.00,-0.0022
3798.00,-0.0022
3797.00,-0.0022
3796.00,-0.0022
3795.00,-0.0021
3794.00,-0.0021
3793.00,-0.0021
3792.00,-0.0021
3791.00,-0.0021
3790.00,-0.0021
3789.00,-0.0021
3788.00,-0.0021
3787.00,-0.0021
3786.00,-0.0021
3785.00,-0.0021
3784.00,-0.0021
3783.00,-0.0021
3782.00,-0.0021
3781.00,-0.0021
3780.00,-0.0021
3779.00,-0.0021
3778.00,-0.0021
3777.00,-0.0021
3776.00,-0.0021
3775.00,-0.0021
3774.00,-0.0021
3773.00,-0.0021
3772.00,-0.0021
3771.00,-0.0021
3770.00,-0.0021
3769.00,-0.0021
3768.00,-0.0021
3767.00,-0.0021
3766.00,-0.0021
3765.00,-0.0021
3764.00,-0.0021
3763.00,-0.0021
3762.00,-0.0021
3761.00,-0.0021
3760.00,-0.0021
3759.00,-0.0021
3758.00,-0.0021
3757.00,-0.0021
3756.00,-0.0021
3755.00,-0.0021
3754.00,-0.0022
3753.00,-0.0022
3752.00,-0.0023
3751.00,-0.0023
3750.00,-0.0023
3749.00,-0.0023
3748.00,-0.0023
3747.00,-0.0023
3746.00,-0.0023
3745.00,-0.0022
3744.00,-0.0022
3743.00,-0.0022
3742.00,-0.0022
3741.00,-0.0021
3740.00,-0.0021
3739.00,-0.0021
3738.00,-0.0020
3737.00,-0.0020
3736.00,-0.0020
3735.00,-0.0020
3734.00,-0.0020
3733.00,-0.0020
3732.00,-0.0020
3731.00,-0.0020
3730.00,-0.0020
3729.00,-0.0020
3728.00,-0.0020
3727.00,-0.0020
3726.00,-0.0020
3725.00,-0.0020
3724.00,-0.0020
3723.00,-0.0020
3722.00,-0.0020
3721.00,-0.0020
3720.00,-0.0020
3719.00,-0.0020
3718.00,-0.0020
3717.00,-0.0020
3716.00,-0.0020
3715.00,-0.0021
3714.00,-0.0021
3713.00,-0.0021
3712.00,-0.0022
3711.00,-0.0022
3710.00,-0.0022
3709.00,-0.0022
3708.00,-0.0021
3707.00,-0.0021
3706.00,-0.0021
3705.00,-0.0021
3704.00,-0.0020
3703.00,-0.0020
3702.00,-0.0020
3701.00,-0.0020
3700.00,-0.0020
3699.00,-0.0021
3698.00,-0.0021
3697.00,-0.0021
3696.00,-0.0021
3695.00,-0.0021
3694.00,-0.0021
3693.00,-0.0021
3692.00,-0.0022
3691.00,-0.0022
3690.00,-0.0022
3689.00,-0.0022
3688.00,-0.0021
3687.00,-0.0021
3686.00,-0.0022
3685.00,-0.0022
3684.00,-0.0021
3683.00,-0.0021
3682.00,-0.0021
3681.00,-0.0021
3680.00,-0.0021
3679.00,-0.0021
3678.00,-0.0022
3677.00,-0.0022
3676.00,-0.0022
3675.00,-0.0022
3674.00,-0.0022
3673.00,-0.0022
3672.00,-0.0022
3671.00,-0.0021
3670.00,-0.0021
3669.00,-0.0021
3668.00,-0.0021
3667.00,-0.0021
3666.00,-0.0021
3665.00,-0.0021
3664.00,-0.0021
3663.00,-0.0020
3662.00,-0.0020
3661.00,-0.0020
3660.00,-0.0021
3659.00,-0.0021
3658.00,-0.0021
3657.00,-0.0021
3656.00,-0.0021
3655.00,-0.0021
3654.00,-0.0021
3653.00,-0.0021
3652.00,-0.0021
3651.00,-0.0021
3650.00,-0.0021
3649.00,-0.0021
3648.00,-0.0021
3647.00,-0.0021
3646.00,-0.0021
3645.00,-0.0021
3644.00,-0.0021
3643.00,-0.0021
3642.00,-0.0021
3641.00,-0.0021
3640.00,-0.0021
3639.00,-0.0021
3638.00,-0.0021
3637.00,-0.0021
3636.00,-0.0021
3635.00,-0.0021
3634.00,-0.0021
3633.00,-0.0021
3632.00,-0.0021
3631.00,-0.0021
3630.00,-0.0021
3629.00,-0.0021
3628.00,-0.0021
3627.00,-0.0021
3626.00,-0.0021
3625.00,-0.0020
3624.00,-0.0020
3623.00,-0.0020
3622.00,-0.0020
3621.00,-0.0020
3620.00,-0.0020
3619.00,-0.0020
3618.00,-0.0020
3617.00,-0.0020
3616.00,-0.0020
3615.00,-0.0020
3614.00,-0.0020
3613.00,-0.0020
3612.00,-0.0020
3611.00,-0.0020
3610.00,-0.0020
3609.00,-0.0020
3608.00,-0.0020
3607.00,-0.0020
3606.00,-0.0020
3605.00,-0.0020
3604.00,-0.0020
3603.00,-0.0020
3602.00,-0.0020
3601.00,-0.0021
3600.00,-0.0021
3599.00,-0.0020
3598.00,-0.0020
3597.00,-0.0020
3596.00,-0.0020
3595.00,-0.0020
3594.00,-0.0020
3593.00,-0.0020
3592.00,-0.0020
3591.00,-0.0020
3590.00,-0.0020
3589.00,-0.0020
3588.00,-0.0020
3587.00,-0.0020
3586.00,-0.0020
3585.00,-0.0020
3584.00,-0.0020
3583.00,-0.0021
3582.00,-0.0021
3581.00,-0.0021
3580.00,-0.0021
3579.00,-0.0021
3578.00,-0.0021
3577.00,-0.0021
3576.00,-0.0021
3575.00,-0.0021
3574.00,-0.0021
3573.00,-0.0021
3572.00,-0.0021
3571.00,-0.0021
3570.00,-0.0020
3569.00,-0.0020
3568.00,-0.0020
3567.00,-0.0019
3566.00,-0.0019
3565.00,-0.0020
3564.00,-0.0020
3563.00,-0.0020
3562.00,-0.0020
3561.00,-0.0020
3560.00,-0.0020
3559.00,-0.0021
3558.00,-0.0021
3557.00,-0.0021
3556.00,-0.0021
3555.00,-0.0021
3554.00,-0.0021
3553.00,-0.0021
3552.00,-0.0021
3551.00,-0.0021
3550.00,-0.0021
3549.00,-0.0020
3548.00,-0.0020
3547.00,-0.0020
3546.00,-0.0020
3545.00,-0.0020
3544.00,-0.0020
3543.00,-0.0021
3542.00,-0.0021
3541.00,-0.0021
3540.00,-0.0021
3539.00,-0.0021
3538.00,-0.0021
3537.00,-0.0021
3536.00,-0.0021
3535.00,-0.0021
3534.00,-0.0021
3533.00,-0.0021
3532.00,-0.0021
3531.00,-0.0021
3530.00,-0.0021
3529.00,-0.0021
3528.00,-0.0021
3527.00,-0.0021
3526.00,-0.0021
3525.00,-0.0021
3524.00,-0.0021
3523.00,-0.0021
3522.00,-0.0021
3521.00,-0.0021
3520.00,-0.0021
3519.00,-0.0021
3518.00,-0.0021
3517.00,-0.0021
3516.00,-0.0021
3515.00,-0.0021
3514.00,-0.0021
3513.00,-0.0021
3512.00,-0.0021
3511.00,-0.0021
3510.00,-0.0021
3509.00,-0.0021
3508.00,-0.0021
3507.00,-0.0021
3506.00,-0.0021
3505.00,-0.0021
3504.00,-0.0021
3503.00,-0.0021
3502.00,-0.0021
3501.00,-0.0021
3500.00,-0.0021
3499.00,-0.0021
3498.00,-0.0021
3497.00,-0.0021
3496.00,-0.0021
3495.00,-0.0021
3494.00,-0.0021
3493.00,-0.0021
3492.00,-0.0021
3491.00,-0.0021
3490.00,-0.0021
3489.00,-0.0021
3488.00,-0.0021
3487.00,-0.0021
3486.00,-0.0021
3485.00,-0.0021
3484.00,-0.0021
3483.00,-0.0021
3482.00,-0.0021
3481.00,-0.0021
3480.00,-0.0021
3479.00,-0.0021
3478.00,-0.0021
3477.00,-0.0022
3476.00,-0.0022
3475.00,-0.0021
3474.00,-0.0021
3473.00,-0.0021
3472.00,-0.0021
3471.00,-0.0021
3470.00,-0.0021
3469.00,-0.0021
3468.00,-0.0021
3467.00,-0.0021
3466.00,-0.0021
3465.00,-0.0021
3464.00,-0.0021
3463.00,-0.0021
3462.00,-0.0021
3461.00,-0.0021
3460.00,-0.0021
3459.00,-0.0021
3458.00,-0.0021
3457.00,-0.0021
3456.00,-0.0021
3455.00,-0.0021
3454.00,-0.0021
3453.00,-0.0021
3452.00,-0.0021
3451.00,-0.0021
3450.00,-0.0021
3449.00,-0.0021
3448.00,-0.0021
3447.00,-0.0021
3446.00,-0.0021
3445.00,-0.0021
3444.00,-0.0021
3443.00,-0.0021
3442.00,-0.0021
3441.00,-0.0021
3440.00,-0.0022
3439.00,-0.0022
3438.00,-0.0022
3437.00,-0.0022
3436.00,-0.0022
3435.00,-0.0022
3434.00,-0.0022
3433.00,-0.0022
3432.00,-0.0022
3431.00,-0.0022
3430.00,-0.0022
3429.00,-0.0022
3428.00,-0.0022
3427.00,-0.0022
3426.00,-0.0022
3425.00,-0.0021
3424.00,-0.0021
3423.00,-0.0021
3422.00,-0.0021
3421.00,-0.0021
3420.00,-0.0021
3419.00,-0.0021
3418.00,-0.0021
3417.00,-0.0021
3416.00,-0.0021
3415.00,-0.0021
3414.00,-0.0021
3413.00,-0.0021
3412.00,-0.0021
3411.00,-0.0021
3410.00,-0.0021
3409.00,-0.0021
3408.00,-0.0021
3407.00,-0.0021
3406.00,-0.0021
3405.00,-0.0021
3404.00,-0.0021
3403.00,-0.0021
3402.00,-0.0021
3401.00,-0.0021
3400.00,-0.0021
3399.00,-0.0021
3398.00,-0.0021
3397.00,-0.0021
3396.00,-0.0021
3395.00,-0.0021
3394.00,-0.0021
3393.00,-0.0021
3392.00,-0.0021
3391.00,-0.0021
3390.00,-0.0021
3389.00,-0.0021
3388.00,-0.0021
3387.00,-0.0021
3386.00,-0.0021
3385.00,-0.0021
3384.00,-0.0021
3383.00,-0.0021
3382.00,-0.0021
3381.00,-0.0021
3380.00,-0.0021
3379.00,-0.0021
3378.00,-0.0021
3377.00,-0.0021
3376.00,-0.0021
3375.00,-0.0021
3374.00,-0.0021
3373.00,-0.0021
3372.00,-0.0021
3371.00,-0.0021
3370.00,-0.0021
3369.00,-0.0021
3368.00,-0.0021
3367.00,-0.0021
3366.00,-0.0022
3365.00,-0.0022
3364.00,-0.0021
3363.00,-0.0021
3362.00,-0.0021
3361.00,-0.0021
3360.00,-0.0021
3359.00,-0.0021
3358.00,-0.0021
3357.00,-0.0021
3356.00,-0.0021
3355.00,-0.0021
3354.00,-0.0021
3353.00,-0.0021
3352.00,-0.0021
3351.00,-0.0021
3350.00,-0.0021
3349.00,-0.0021
3348.00,-0.0021
3347.00,-0.0021
3346.00,-0.0021
3345.00,-0.0021
3344.00,-0.0021
3343.00,-0.0021
3342.00,-0.0021
3341.00,-0.0021
3340.00,-0.0021
3339.00,-0.0021
3338.00,-0.0021
3337.00,-0.0021
3336.00,-0.0021
3335.00,-0.0021
3334.00,-0.0021
3333.00,-0.0021
3332.00,-0.0021
3331.00,-0.0021
3330.00,-0.0022
3329.00,-0.0022
3328.00,-0.0022
3327.00,-0.0022
3326.00,-0.0022
3325.00,-0.0022
3324.00,-0.0022
3323.00,-0.0022
3322.00,-0.0022
3321.00,-0.0022
3320.00,-0.0021
3319.00,-0.0021
3318.00,-0.0021
3317.00,-0.0021
3316.00,-0.0022
3315.00,-0.0022
3314.00,-0.0022
3313.00,-0.0021
3312.00,-0.0021
3311.00,-0.0021
3310.00,-0.0021
3309.00,-0.0021
3308.00,-0.0021
3307.00,-0.0021
3306.00,-0.0021
3305.00,-0.0021
3304.00,-0.0021
3303.00,-0.0021
3302.00,-0.0021
3301.00,-0.0021
3300.00,-0.0021
3299.00,-0.0021
3298.00,-0.0021
3297.00,-0.0021
3296.00,-0.0021
3295.00,-0.0021
3294.00,-0.0021
3293.00,-0.0021
3292.00,-0.0021
3291.00,-0.0021
3290.00,-0.0021
3289.00,-0.0021
3288.00,-0.0021
3287.00,-0.0021
3286.00,-0.0021
3285.00,-0.0021
3284.00,-0.0021
3283.00,-0.0021
3282.00,-0.0021
3281.00,-0.0021
3280.00,-0.0022
3279.00,-0.0022
3278.00,-0.0022
3277.00,-0.0022
3276.00,-0.0021
3275.00,-0.0021
3274.00,-0.0021
3273.00,-0.0021
3272.00,-0.0021
3271.00,-0.0021
3270.00,-0.0022
3269.00,-0.0022
3268.00,-0.0022
3267.00,-0.0022
3266.00,-0.0021
3265.00,-0.0021
3264.00,-0.0021
3263.00,-0.0021
3262.00,-0.0021
3261.00,-0.0021
3260.00,-0.0021
3259.00,-0.0021
3258.00,-0.0021
3257.00,-0.0021
3256.00,-0.0021
3255.00,-0.0021
3254.00,-0.0021
3253.00,-0.0021
3252.00,-0.0021
3251.00,-0.0021
3250.00,-0.0021
3249.00,-0.0021
3248.00,-0.0021
3247.00,-0.0021
3246.00,-0.0021
3245.00,-0.0021
3244.00,-0.0021
3243.00,-0.0021
3242.00,-0.0021
3241.00,-0.0021
3240.00,-0.0021
3239.00,-0.0021
3238.00,-0.0021
3237.00,-0.0021
3236.00,-0.0021
3235.00,-0.0021
3234.00,-0.0021
3233.00,-0.0021
3232.00,-0.0021
3231.00,-0.0021
3230.00,-0.0021
3229.00,-0.0021
3228.00,-0.0021
3227.00,-0.0021
3226.00,-0.0021
3225.00,-0.0021
3224.00,-0.0021
3223.00,-0.0022
3222.00,-0.0022
3221.00,-0.0022
3220.00,-0.0021
3219.00,-0.0021
3218.00,-0.0021
3217.00,-0.0021
3216.00,-0.0021
3215.00,-0.0021
3214.00,-0.0021
3213.00,-0.0021
3212.00,-0.0021
3211.00,-0.0021
3210.00,-0.0021
3209.00,-0.0021
3208.00,-0.0021
3207.00,-0.0021
3206.00,-0.0021
3205.00,-0.0021
3204.00,-0.0021
3203.00,-0.0021
3202.00,-0.0021
3201.00,-0.0021
3200.00,-0.0021
3199.00,-0.0021
3198.00,-0.0021
3197.00,-0.0021
3196.00,-0.0021
3195.00,-0.0021
3194.00,-0.0021
3193.00,-0.0021
3192.00,-0.0021
3191.00,-0.0021
3190.00,-0.0021
3189.00,-0.0021
3188.00,-0.0021
3187.00,-0.0021
3186.00,-0.0021
3185.00,-0.0021
3184.00,-0.0021
3183.00,-0.0021
3182.00,-0.0021
3181.00,-0.0021
3180.00,-0.0021
3179.00,-0.0021
3178.00,-0.0021
3177.00,-0.0021
3176.00,-0.0021
3175.00,-0.0021
3174.00,-0.0021
3173.00,-0.0021
3172.00,-0.0021
3171.00,-0.0021
3170.00,-0.0021
3169.00,-0.0021
3168.00,-0.0021
3167.00,-0.0021
3166.00,-0.0021
3165.00,-0.0021
3164.00,-0.0021
3163.00,-0.0021
3162.00,-0.0022
3161.00,-0.0022
3160.00,-0.0022
3159.00,-0.0022
3158.00,-0.0022
3157.00,-0.0022
3156.00,-0.0022
3155.00,-0.0021
3154.00,-0.0021
3153.00,-0.0021
3152.00,-0.0021
3151.00,-0.0021
3150.00,-0.0021
3149.00,-0.0021
3148.00,-0.0021
3147.00,-0.0021
3146.00,-0.0021
3145.00,-0.0021
3144.00,-0.0021
3143.00,-0.0021
3142.00,-0.0021
3141.00,-0.0021
3140.00,-0.0021
3139.00,-0.0021
3138.00,-0.0021
3137.00,-0.0021
3136.00,-0.0021
3135.00,-0.0021
3134.00,-0.0021
3133.00,-0.0021
3132.00,-0.0021
3131.00,-0.0021
3130.00,-0.0021
3129.00,-0.0021
3128.00,-0.0021
3127.00,-0.0021
3126.00,-0.0021
3125.00,-0.0021
3124.00,-0.0021
3123.00,-0.0021
3122.00,-0.0021
3121.00,-0.0021
3120.00,-0.0021
3119.00,-0.0021
3118.00,-0.0021
3117.00,-0.0021
3116.00,-0.0021
3115.00,-0.0021
3114.00,-0.0021
3113.00,-0.0021
3112.00,-0.0021
3111.00,-0.0021
3110.00,-0.0021
3109.00,-0.0021
3108.00,-0.0021
3107.00,-0.0021
3106.00,-0.0021
3105.00,-0.0021
3104.00,-0.0021
3103.00,-0.0021
3102.00,-0.0021
3101.00,-0.0021
3100.00,-0.0021
3099.00,-0.0021
3098.00,-0.0021
3097.00,-0.0021
3096.00,-0.0021
3095.00,-0.0021
3094.00,-0.0021
3093.00,-0.0021
3092.00,-0.0021
3091.00,-0.0021
3090.00,-0.0021
3089.00,-0.0021
3088.00,-0.0021
3087.00,-0.0021
3086.00,-0.0021
3085.00,-0.0021
3084.00,-0.0021
3083.00,-0.0021
3082.00,-0.0021
3081.00,-0.0021
3080.00,-0.0021
3079.00,-0.0021
3078.00,-0.0021
3077.00,-0.0021
3076.00,-0.0021
3075.00,-0.0021
3074.00,-0.0021
3073.00,-0.0021
3072.00,-0.0021
3071.00,-0.0021
3070.00,-0.0021
3069.00,-0.0021
3068.00,-0.0021
3067.00,-0.0021
3066.00,-0.0021
3065.00,-0.0021
3064.00,-0.0021
3063.00,-0.0021
3062.00,-0.0021
3061.00,-0.0021
3060.00,-0.0021
3059.00,-0.0021
3058.00,-0.0021
3057.00,-0.0021
3056.00,-0.0021
3055.00,-0.0021
3054.00,-0.0021
3053.00,-0.0021
3052.00,-0.0021
3051.00,-0.0021
3050.00,-0.0021
3049.00,-0.0021
3048.00,-0.0021
3047.00,-0.0021
3046.00,-0.0021
3045.00,-0.0021
3044.00,-0.0021
3043.00,-0.0021
3042.00,-0.0021
3041.00,-0.0021
3040.00,-0.0021
3039.00,-0.0021
3038.00,-0.0021
3037.00,-0.0021
3036.00,-0.0021
3035.00,-0.0021
3034.00,-0.0021
3033.00,-0.0021
3032.00,-0.0021
3031.00,-0.0021
3030.00,-0.0021
3029.00,-0.0021
3028.00,-0.0021
3027.00,-0.0021
3026.00,-0.0021
3025.00,-0.0021
3024.00,-0.0021
3023.00,-0.0021
3022.00,-0.0021
3021.00,-0.0021
3020.00,-0.0021
3019.00,-0.0021
3018.00,-0.0021
3017.00,-0.0021
3016.00,-0.0021
3015.00,-0.0021
3014.00,-0.0021
3013.00,-0.0021
3012.00,-0.0021
3011.00,-0.0021
3010.00,-0.0021
3009.00,-0.0021
3008.00,-0.0021
3007.00,-0.0021
3006.00,-0.0021
3005.00,-0.0021
3004.00,-0.0021
3003.00,-0.0021
3002.00,-0.0021
3001.00,-0.0021
3000.00,-0.0021
2999.00,-0.0021
2998.00,-0.0021
2997.00,-0.0021
2996.00,-0.0021
2995.00,-0.0021
2994.00,-0.0021
2993.00,-0.0021
2992.00,-0.0021
2991.00,-0.0021
2990.00,-0.0021
2989.00,-0.0021
2988.00,-0.0021
2987.00,-0.0021
2986.00,-0.0021
2985.00,-0.0021
2984.00,-0.0021
2983.00,-0.0021
2982.00,-0.0021
2981.00,-0.0021
2980.00,-0.0021
2979.00,-0.0021
2978.00,-0.0021
2977.00,-0.0021
2976.00,-0.0021
2975.00,-0.0021
2974.00,-0.0021
2973.00,-0.0021
2972.00,-0.0021
2971.00,-0.0021
2970.00,-0.0021
2969.00,-0.0021
2968.00,-0.0021
2967.00,-0.0021
2966.00,-0.0022
2965.00,-0.0022
2964.00,-0.0022
2963.00,-0.0022
2962.00,-0.0022
2961.00,-0.0022
2960.00,-0.0022
2959.00,-0.0022
2958.00,-0.0022
2957.00,-0.0022
2956.00,-0.0021
2955.00,-0.0021
2954.00,-0.0021
2953.00,-0.0021
2952.00,-0.0021
2951.00,-0.0021
2950.00,-0.0021
2949.00,-0.0021
2948.00,-0.0021
2947.00,-0.0022
2946.00,-0.0022
2945.00,-0.0022
2944.00,-0.0021
2943.00,-0.0021
2942.00,-0.0021
2941.00,-0.0021
2940.00,-0.0021
2939.00,-0.0021
2938.00,-0.0021
2937.00,-0.0021
2936.00,-0.0021
2935.00,-0.0021
2934.00,-0.0021
2933.00,-0.0021
2932.00,-0.0021
2931.00,-0.0021
2930.00,-0.0021
2929.00,-0.0021
2928.00,-0.0021
2927.00,-0.0021
2926.00,-0.0021
2925.00,-0.0021
2924.00,-0.0021
2923.00,-0.0021
2922.00,-0.0021
2921.00,-0.0021
2920.00,-0.0021
2919.00,-0.0021
2918.00,-0.0021
2917.00,-0.0021
2916.00,-0.0021
2915.00,-0.0021
2914.00,-0.0021
2913.00,-0.0021
2912.00,-0.0021
2911.00,-0.0021
2910.00,-0.0021
2909.00,-0.0022
2908.00,-0.0022
2907.00,-0.0022
2906.00,-0.0022
2905.00,-0.0022
2904.00,-0.0022
2903.00,-0.0022
2902.00,-0.0022
2901.00,-0.0022
2900.00,-0.0022
2899.00,-0.0022
2898.00,-0.0022
2897.00,-0.0021
2896.00,-0.0021
2895.00,-0.0021
2894.00,-0.0021
2893.00,-0.0021
2892.00,-0.0021
2891.00,-0.0021
2890.00,-0.0021
2889.00,-0.0021
2888.00,-0.0021
2887.00,-0.0021
2886.00,-0.0021
2885.00,-0.0021
2884.00,-0.0021
2883.00,-0.0021
2882.00,-0.0021
2881.00,-0.0021
2880.00,-0.0021
2879.00,-0.0021
2878.00,-0.0021
2877.00,-0.0021
2876.00,-0.0021
2875.00,-0.0021
2874.00,-0.0021
2873.00,-0.0021
2872.00,-0.0021
2871.00,-0.0021
2870.00,-0.0021
2869.00,-0.0021
2868.00,-0.0021
2867.00,-0.0021
2866.00,-0.0021
2865.00,-0.0021
2864.00,-0.0021
2863.00,-0.0021
2862.00,-0.0022
2861.00,-0.0022
2860.00,-0.0022
2859.00,-0.0022
2858.00,-0.0022
2857.00,-0.0022
2856.00,-0.0022
2855.00,-0.0022
2854.00,-0.0022
2853.00,-0.0022
2852.00,-0.0022
2851.00,-0.0022
2850.00,-0.0022
2849.00,-0.0022
2848.00,-0.0022
2847.00,-0.0022
2846.00,-0.0022
2845.00,-0.0022
2844.00,-0.0022
2843.00,-0.0022
2842.00,-0.0022
2841.00,-0.0022
2840.00,-0.0022
2839.00,-0.0022
2838.00,-0.0022
2837.00,-0.0021
2836.00,-0.0021
2835.00,-0.0021
2834.00,-0.0021
2833.00,-0.0021
2832.00,-0.0021
2831.00,-0.0021
2830.00,-0.0021
2829.00,-0.0021
2828.00,-0.0021
2827.00,-0.0021
2826.00,-0.0021
2825.00,-0.0021
2824.00,-0.0021
2823.00,-0.0021
2822.00,-0.0021
2821.00,-0.0021
2820.00,-0.0021
2819.00,-0.0021
2818.00,-0.0021
2817.00,-0.0021
2816.00,-0.0021
2815.00,-0.0021
2814.00,-0.0021
2813.00,-0.0021
2812.00,-0.0021
2811.00,-0.0021
2810.00,-0.0021
2809.00,-0.0021
2808.00,-0.0021
2807.00,-0.0021
2806.00,-0.0021
2805.00,-0.0022
2804.00,-0.0022
2803.00,-0.0022
2802.00,-0.0022
2801.00,-0.0022
2800.00,-0.0022
2799.00,-0.0022
2798.00,-0.0022
2797.00,-0.0022
2796.00,-0.0022
2795.00,-0.0022
2794.00,-0.0022
2793.00,-0.0022
2792.00,-0.0022
2791.00,-0.0022
2790.00,-0.0022
2789.00,-0.0022
2788.00,-0.0022
2787.00,-0.0022
2786.00,-0.0022
2785.00,-0.0022
2784.00,-0.0022
2783.00,-0.0022
2782.00,-0.0021
2781.00,-0.0021
2780.00,-0.0021
2779.00,-0.0021
2778.00,-0.0021
2777.00,-0.0021
2776.00,-0.0021
2775.00,-0.0021
2774.00,-0.0021
2773.00,-0.0021
2772.00,-0.0021
2771.00,-0.0021
2770.00,-0.0021
2769.00,-0.0021
2768.00,-0.0021
2767.00,-0.0021
2766.00,-0.0021
2765.00,-0.0021
2764.00,-0.0021
2763.00,-0.0021
2762.00,-0.0021
2761.00,-0.0021
2760.00,-0.0021
2759.00,-0.0021
2758.00,-0.0021
2757.00,-0.0021
2756.00,-0.0021
2755.00,-0.0021
2754.00,-0.0021
2753.00,-0.0022
2752.00,-0.0022
2751.00,-0.0022
2750.00,-0.0022
2749.00,-0.0022
2748.00,-0.0022
2747.00,-0.0022
2746.00,-0.0022
2745.00,-0.0022
2744.00,-0.0022
2743.00,-0.0022
2742.00,-0.0022
2741.00,-0.0022
2740.00,-0.0022
2739.00,-0.0022
2738.00,-0.0022
2737.00,-0.0022
2736.00,-0.0022
2735.00,-0.0022
2734.00,-0.0022
2733.00,-0.0022
2732.00,-0.0022
2731.00,-0.0022
2730.00,-0.0022
2729.00,-0.0022
2728.00,-0.0022
2727.00,-0.0022
2726.00,-0.0022
2725.00,-0.0022
2724.00,-0.0021
2723.00,-0.0022
2722.00,-0.0022
2721.00,-0.0022
2720.00,-0.0022
2719.00,-0.0021
2718.00,-0.0021
2717.00,-0.0021
2716.00,-0.0021
2715.00,-0.0021
2714.00,-0.0021
2713.00,-0.0021
2712.00,-0.0021
2711.00,-0.0021
2710.00,-0.0021
2709.00,-0.0021
2708.00,-0.0021
2707.00,-0.0021
2706.00,-0.0021
2705.00,-0.0021
2704.00,-0.0021
2703.00,-0.0022
2702.00,-0.0022
2701.00,-0.0022
2700.00,-0.0022
2699.00,-0.0022
2698.00,-0.0022
2697.00,-0.0022
2696.00,-0.0022
2695.00,-0.0022
2694.00,-0.0022
2693.00,-0.0022
2692.00,-0.0022
2691.00,-0.0022
2690.00,-0.0022
2689.00,-0.0022
2688.00,-0.0022
2687.00,-0.0022
2686.00,-0.0022
2685.00,-0.0022
2684.00,-0.0022
2683.00,-0.0022
2682.00,-0.0022
2681.00,-0.0022
2680.00,-0.0022
2679.00,-0.0022
2678.00,-0.0022
2677.00,-0.0022
2676.00,-0.0022
2675.00,-0.0022
2674.00,-0.0022
2673.00,-0.0022
2672.00,-0.0022
2671.00,-0.0022
2670.00,-0.0022
2669.00,-0.0022
2668.00,-0.0022
2667.00,-0.0022
2666.00,-0.0022
2665.00,-0.0021
2664.00,-0.0021
2663.00,-0.0021
2662.00,-0.0021
2661.00,-0.0021
2660.00,-0.0021
2659.00,-0.0021
2658.00,-0.0021
2657.00,-0.0022
2656.00,-0.0022
2655.00,-0.0022
2654.00,-0.0022
2653.00,-0.0022
2652.00,-0.0022
2651.00,-0.0022
2650.00,-0.0022
2649.00,-0.0022
2648.00,-0.0022
2647.00,-0.0022
2646.00,-0.0022
2645.00,-0.0022
2644.00,-0.0022
2643.00,-0.0022
2642.00,-0.0022
2641.00,-0.0022
2640.00,-0.0022
2639.00,-0.0022
2638.00,-0.0022
2637.00,-0.0022
2636.00,-0.0022
2635.00,-0.0022
2634.00,-0.0022
2633.00,-0.0022
2632.00,-0.0022
2631.00,-0.0022
2630.00,-0.0022
2629.00,-0.0022
2628.00,-0.0022
2627.00,-0.0022
2626.00,-0.0022
2625.00,-0.0022
2624.00,-0.0022
2623.00,-0.0022
2622.00,-0.0022
2621.00,-0.0022
2620.00,-0.0022
2619.00,-0.0022
2618.00,-0.0022
2617.00,-0.0022
2616.00,-0.0022
2615.00,-0.0022
2614.00,-0.0022
2613.00,-0.0022
2612.00,-0.0021
2611.00,-0.0021
2610.00,-0.0021
2609.00,-0.0021
2608.00,-0.0021
2607.00,-0.0021
2606.00,-0.0021
2605.00,-0.0021
2604.00,-0.0021
2603.00,-0.0021
2602.00,-0.0021
2601.00,-0.0021
2600.00,-0.0022
2599.00,-0.0022
2598.00,-0.0022
2597.00,-0.0022
2596.00,-0.0022
2595.00,-0.0022
2594.00,-0.0022
2593.00,-0.0022
2592.00,-0.0022
2591.00,-0.0022
2590.00,-0.0022
2589.00,-0.0022
2588.00,-0.0022
2587.00,-0.0022
2586.00,-0.0022
2585.00,-0.0022
2584.00,-0.0022
2583.00,-0.0022
2582.00,-0.0022
2581.00,-0.0022
2580.00,-0.0022
2579.00,-0.0022
2578.00,-0.0022
2577.00,-0.0022
2576.00,-0.0022
2575.00,-0.0022
2574.00,-0.0022
2573.00,-0.0022
2572.00,-0.0022
2571.00,-0.0022
2570.00,-0.0022
2569.00,-0.0022
2568.00,-0.0022
2567.00,-0.0022
2566.00,-0.0022
2565.00,-0.0022
2564.00,-0.0022
2563.00,-0.0022
2562.00,-0.0022
2561.00,-0.0022
2560.00,-0.0022
2559.00,-0.0021
2558.00,-0.0021
2557.00,-0.0021
2556.00,-0.0021
2555.00,-0.0022
2554.00,-0.0022
2553.00,-0.0022
2552.00,-0.0022
2551.00,-0.0022
2550.00,-0.0022
2549.00,-0.0021
2548.00,-0.0021
2547.00,-0.0021
2546.00,-0.0021
2545.00,-0.0022
2544.00,-0.0022
2543.00,-0.0022
2542.00,-0.0022
2541.00,-0.0022
2540.00,-0.0022
2539.00,-0.0022
2538.00,-0.0022
2537.00,-0.0022
2536.00,-0.0022
2535.00,-0.0022
2534.00,-0.0022
2533.00,-0.0022
2532.00,-0.0022
2531.00,-0.0022
2530.00,-0.0022
2529.00,-0.0022
2528.00,-0.0022
2527.00,-0.0022
2526.00,-0.0022
2525.00,-0.0022
2524.00,-0.0022
2523.00,-0.0022
2522.00,-0.0022
2521.00,-0.0022
2520.00,-0.0022
2519.00,-0.0022
2518.00,-0.0022
2517.00,-0.0022
2516.00,-0.0022
2515.00,-0.0022
2514.00,-0.0022
2513.00,-0.0022
2512.00,-0.0022
2511.00,-0.0022
2510.00,-0.0022
2509.00,-0.0022
2508.00,-0.0022
2507.00,-0.0022
2506.00,-0.0022
2505.00,-0.0022
2504.00,-0.0022
2503.00,-0.0022
2502.00,-0.0022
2501.00,-0.0022
2500.00,-0.0021
2499.00,-0.0021
2498.00,-0.0021
2497.00,-0.0021
2496.00,-0.0022
2495.00,-0.0022
2494.00,-0.0022
2493.00,-0.0022
2492.00,-0.0022
2491.00,-0.0022
2490.00,-0.0022
2489.00,-0.0022
2488.00,-0.0022
2487.00,-0.0022
2486.00,-0.0022
2485.00,-0.0022
2484.00,-0.0022
2483.00,-0.0022
2482.00,-0.0022
2481.00,-0.0022
2480.00,-0.0022
2479.00,-0.0022
2478.00,-0.0022
2477.00,-0.0022
2476.00,-0.0022
2475.00,-0.0022
2474.00,-0.0022
2473.00,-0.0022
2472.00,-0.0022
2471.00,-0.0022
2470.00,-0.0022
2469.00,-0.0022
2468.00,-0.0022
2467.00,-0.0022
2466.00,-0.0022
2465.00,-0.0022
2464.00,-0.0022
2463.00,-0.0022
2462.00,-0.0022
2461.00,-0.0022
2460.00,-0.0022
2459.00,-0.0022
2458.00,-0.0022
2457.00,-0.0022
2456.00,-0.0022
2455.00,-0.0022
2454.00,-0.0022
2453.00,-0.0022
2452.00,-0.0022
2451.00,-0.0022
2450.00,-0.0022
2449.00,-0.0022
2448.00,-0.0021
2447.00,-0.0021
2446.00,-0.0021
2445.00,-0.0021
2444.00,-0.0021
2443.00,-0.0022
2442.00,-0.0022
2441.00,-0.0022
2440.00,-0.0022
2439.00,-0.0022
2438.00,-0.0022
2437.00,-0.0022
2436.00,-0.0022
2435.00,-0.0022
2434.00,-0.0022
2433.00,-0.0022
2432.00,-0.0022
2431.00,-0.0022
2430.00,-0.0022
2429.00,-0.0022
2428.00,-0.0022
2427.00,-0.0022
2426.00,-0.0022
2425.00,-0.0022
2424.00,-0.0022
2423.00,-0.0022
2422.00,-0.0022
2421.00,-0.0022
2420.00,-0.0022
2419.00,-0.0022
2418.00,-0.0022
2417.00,-0.0022
2416.00,-0.0022
2415.00,-0.0022
2414.00,-0.0022
2413.00,-0.0022
2412.00,-0.0022
2411.00,-0.0022
2410.00,-0.0022
2409.00,-0.0022
2408.00,-0.0022
2407.00,-0.0022
2406.00,-0.0022
2405.00,-0.0022
2404.00,-0.0022
2403.00,-0.0022
2402.00,-0.0022
2401.00,-0.0022
2400.00,-0.0022
2399.00,-0.0022
2398.00,-0.0022
2397.00,-0.0022
2396.00,-0.0022
2395.00,-0.0022
2394.00,-0.0022
2393.00,-0.0022
2392.00,-0.0022
2391.00,-0.0022
2390.00,-0.0022
2389.00,-0.0022
2388.00,-0.0022
2387.00,-0.0022
2386.00,-0.0023
2385.00,-0.0023
2384.00,-0.0023
2383.00,-0.0023
2382.00,-0.0023
2381.00,-0.0023
2380.00,-0.0022
2379.00,-0.0022
2378.00,-0.0021
2377.00,-0.0020
2376.00,-0.0020
2375.00,-0.0020
2374.00,-0.0021
2373.00,-0.0021
2372.00,-0.0021
2371.00,-0.0022
2370.00,-0.0022
2369.00,-0.0022
2368.00,-0.0022
2367.00,-0.0022
2366.00,-0.0022
2365.00,-0.0022
2364.00,-0.0022
2363.00,-0.0021
2362.00,-0.0022
2361.00,-0.0022
2360.00,-0.0022
2359.00,-0.0022
2358.00,-0.0022
2357.00,-0.0022
2356.00,-0.0021
2355.00,-0.0021
2354.00,-0.0020
2353.00,-0.0020
2352.00,-0.0019
2351.00,-0.0019
2350.00,-0.0021
2349.00,-0.0022
2348.00,-0.0024
2347.00,-0.0024
2346.00,-0.0023
2345.00,-0.0022
2344.00,-0.0022
2343.00,-0.0023
2342.00,-0.0023
2341.00,-0.0023
2340.00,-0.0023
2339.00,-0.0022
2338.00,-0.0022
2337.00,-0.0022
2336.00,-0.0022
2335.00,-0.0023
2334.00,-0.0023
2333.00,-0.0023
2332.00,-0.0023
2331.00,-0.0023
2330.00,-0.0023
2329.00,-0.0023
2328.00,-0.0023
2327.00,-0.0024
2326.00,-0.0024
2325.00,-0.0024
2324.00,-0.0024
2323.00,-0.0024
2322.00,-0.0024
2321.00,-0.0024
2320.00,-0.0023
2319.00,-0.0023
2318.00,-0.0023
2317.00,-0.0023
2316.00,-0.0023
2315.00,-0.0023
2314.00,-0.0023
2313.00,-0.0023
2312.00,-0.0023
2311.00,-0.0023
2310.00,-0.0023
2309.00,-0.0024
2308.00,-0.0024
2307.00,-0.0023
2306.00,-0.0023
2305.00,-0.0023
2304.00,-0.0023
2303.00,-0.0023
2302.00,-0.0023
2301.00,-0.0023
2300.00,-0.0023
2299.00,-0.0023
2298.00,-0.0023
2297.00,-0.0023
2296.00,-0.0023
2295.00,-0.0023
2294.00,-0.0023
2293.00,-0.0023
2292.00,-0.0022
2291.00,-0.0022
2290.00,-0.0022
2289.00,-0.0022
2288.00,-0.0022
2287.00,-0.0022
2286.00,-0.0022
2285.00,-0.0022
2284.00,-0.0022
2283.00,-0.0022
2282.00,-0.0022
2281.00,-0.0022
2280.00,-0.0022
2279.00,-0.0022
2278.00,-0.0022
2277.00,-0.0022
2276.00,-0.0022
2275.00,-0.0022
2274.00,-0.0022
2273.00,-0.0022
2272.00,-0.0022
2271.00,-0.0022
2270.00,-0.0022
2269.00,-0.0022
2268.00,-0.0022
2267.00,-0.0022
2266.00,-0.0022
2265.00,-0.0022
2264.00,-0.0022
2263.00,-0.0022
2262.00,-0.0022
2261.00,-0.0022
2260.00,-0.0022
2259.00,-0.0022
2258.00,-0.0022
2257.00,-0.0022
2256.00,-0.0022
2255.00,-0.0022
2254.00,-0.0022
2253.00,-0.0022
2252.00,-0.0022
2251.00,-0.0022
2250.00,-0.0022
2249.00,-0.0022
2248.00,-0.0022
2247.00,-0.0022
2246.00,-0.0022
2245.00,-0.0022
2244.00,-0.0022
2243.00,-0.0022
2242.00,-0.0022
2241.00,-0.0022
2240.00,-0.0022
2239.00,-0.0022
2238.00,-0.0022
2237.00,-0.0022
2236.00,-0.0022
2235.00,-0.0022
2234.00,-0.0022
2233.00,-0.0022
2232.00,-0.0022
2231.00,-0.0022
2230.00,-0.0022
2229.00,-0.0022
2228.00,-0.0022
2227.00,-0.0022
2226.00,-0.0022
2225.00,-0.0022
2224.00,-0.0022
2223.00,-0.0022
2222.00,-0.0022
2221.00,-0.0022
2220.00,-0.0022
2219.00,-0.0022
2218.00,-0.0022
2217.00,-0.0022
2216.00,-0.0022
2215.00,-0.0022
2214.00,-0.0022
2213.00,-0.0022
2212.00,-0.0022
2211.00,-0.0022
2210.00,-0.0022
2209.00,-0.0022
2208.00,-0.0022
2207.00,-0.0022
2206.00,-0.0022
2205.00,-0.0022
2204.00,-0.0022
2203.00,-0.0022
2202.00,-0.0022
2201.00,-0.0022
2200.00,-0.0022
2199.00,-0.0022
2198.00,-0.0022
2197.00,-0.0022
2196.00,-0.0022
2195.00,-0.0022
2194.00,-0.0022
2193.00,-0.0022
2192.00,-0.0022
2191.00,-0.0022
2190.00,-0.0022
2189.00,-0.0022
2188.00,-0.0022
2187.00,-0.0022
2186.00,-0.0022
2185.00,-0.0022
2184.00,-0.0022
2183.00,-0.0022
2182.00,-0.0022
2181.00,-0.0022
2180.00,-0.0022
2179.00,-0.0022
2178.00,-0.0022
2177.00,-0.0022
2176.00,-0.0022
2175.00,-0.0022
2174.00,-0.0022
2173.00,-0.0022
2172.00,-0.0022
2171.00,-0.0022
2170.00,-0.0022
2169.00,-0.0022
2168.00,-0.0022
2167.00,-0.0022
2166.00,-0.0022
2165.00,-0.0022
2164.00,-0.0022
2163.00,-0.0022
2162.00,-0.0022
2161.00,-0.0022
2160.00,-0.0022
2159.00,-0.0022
2158.00,-0.0022
2157.00,-0.0022
2156.00,-0.0022
2155.00,-0.0022
2154.00,-0.0022
2153.00,-0.0022
2152.00,-0.0022
2151.00,-0.0022
2150.00,-0.0022
2149.00,-0.0022
2148.00,-0.0022
2147.00,-0.0022
2146.00,-0.0022
2145.00,-0.0022
2144.00,-0.0022
2143.00,-0.0022
2142.00,-0.0022
2141.00,-0.0022
2140.00,-0.0022
2139.00,-0.0022
2138.00,-0.0022
2137.00,-0.0022
2136.00,-0.0022
2135.00,-0.0022
2134.00,-0.0022
2133.00,-0.0022
2132.00,-0.0022
2131.00,-0.0022
2130.00,-0.0022
2129.00,-0.0022
2128.00,-0.0022
2127.00,-0.0022
2126.00,-0.0022
2125.00,-0.0022
2124.00,-0.0022
2123.00,-0.0022
2122.00,-0.0022
2121.00,-0.0022
2120.00,-0.0022
2119.00,-0.0022
2118.00,-0.0022
2117.00,-0.0022
2116.00,-0.0022
2115.00,-0.0022
2114.00,-0.0022
2113.00,-0.0022
2112.00,-0.0022
2111.00,-0.0022
2110.00,-0.0022
2109.00,-0.0022
2108.00,-0.0022
2107.00,-0.0022
2106.00,-0.0022
2105.00,-0.0022
2104.00,-0.0022
2103.00,-0.0022
2102.00,-0.0022
2101.00,-0.0022
2100.00,-0.0022
2099.00,-0.0022
2098.00,-0.0022
2097.00,-0.0022
2096.00,-0.0022
2095.00,-0.0023
2094.00,-0.0023
2093.00,-0.0023
2092.00,-0.0023
2091.00,-0.0023
2090.00,-0.0022
2089.00,-0.0022
2088.00,-0.0022
2087.00,-0.0022
2086.00,-0.0022
2085.00,-0.0022
2084.00,-0.0022
2083.00,-0.0022
2082.00,-0.0022
2081.00,-0.0022
2080.00,-0.0022
2079.00,-0.0022
2078.00,-0.0022
2077.00,-0.0022
2076.00,-0.0022
2075.00,-0.0022
2074.00,-0.0022
2073.00,-0.0022
2072.00,-0.0022
2071.00,-0.0022
2070.00,-0.0022
2069.00,-0.0022
2068.00,-0.0022
2067.00,-0.0022
2066.00,-0.0022
2065.00,-0.0022
2064.00,-0.0022
2063.00,-0.0022
2062.00,-0.0022
2061.00,-0.0022
2060.00,-0.0022
2059.00,-0.0022
2058.00,-0.0022
2057.00,-0.0022
2056.00,-0.0022
2055.00,-0.0022
2054.00,-0.0022
2053.00,-0.0022
2052.00,-0.0022
2051.00,-0.0022
2050.00,-0.0022
2049.00,-0.0022
2048.00,-0.0022
2047.00,-0.0022
2046.00,-0.0022
2045.00,-0.0022
2044.00,-0.0022
2043.00,-0.0022
2042.00,-0.0022
2041.00,-0.0022
2040.00,-0.0022
2039.00,-0.0022
2038.00,-0.0022
2037.00,-0.0022
2036.00,-0.0022
2035.00,-0.0022
2034.00,-0.0022
2033.00,-0.0022
2032.00,-0.0022
2031.00,-0.0022
2030.00,-0.0022
2029.00,-0.0022
2028.00,-0.0022
2027.00,-0.0022
2026.00,-0.0022
2025.00,-0.0022
2024.00,-0.0022
2023.00,-0.0022
2022.00,-0.0022
2021.00,-0.0022
2020.00,-0.0022
2019.00,-0.0022
2018.00,-0.0022
2017.00,-0.0022
2016.00,-0.0022
2015.00,-0.0022
2014.00,-0.0022
2013.00,-0.0022
2012.00,-0.0022
2011.00,-0.0022
2010.00,-0.0022
2009.00,-0.0022
2008.00,-0.0022
2007.00,-0.0022
2006.00,-0.0022
2005.00,-0.0022
2004.00,-0.0022
2003.00,-0.0022
2002.00,-0.0022
2001.00,-0.0022
2000.00,-0.0022
1999.00,-0.0022
1998.00,-0.0022
1997.00,-0.0022
1996.00,-0.0022
1995.00,-0.0022
1994.00,-0.0022
1993.00,-0.0022
1992.00,-0.0022
1991.00,-0.0022
1990.00,-0.0022
1989.00,-0.0022
1988.00,-0.0022
1987.00,-0.0022
1986.00,-0.0022
1985.00,-0.0022
1984.00,-0.0022
1983.00,-0.0022
1982.00,-0.0022
1981.00,-0.0022
1980.00,-0.0022
1979.00,-0.0022
1978.00,-0.0022
1977.00,-0.0022
1976.00,-0.0022
1975.00,-0.0022
1974.00,-0.0022
1973.00,-0.0022
1972.00,-0.0022
1971.00,-0.0022
1970.00,-0.0022
1969.00,-0.0022
1968.00,-0.0022
1967.00,-0.0022
1966.00,-0.0022
1965.00,-0.0022
1964.00,-0.0022
1963.00,-0.0022
1962.00,-0.0022
1961.00,-0.0022
1960.00,-0.0022
1959.00,-0.0022
1958.00,-0.0022
1957.00,-0.0022
1956.00,-0.0022
1955.00,-0.0022
1954.00,-0.0022
1953.00,-0.0022
1952.00,-0.0022
1951.00,-0.0022
1950.00,-0.0022
1949.00,-0.0022
1948.00,-0.0022
1947.00,-0.0022
1946.00,-0.0022
1945.00,-0.0022
1944.00,-0.0022
1943.00,-0.0022
1942.00,-0.0022
1941.00,-0.0022
1940.00,-0.0022
1939.00,-0.0022
1938.00,-0.0022
1937.00,-0.0022
1936.00,-0.0022
1935.00,-0.0022
1934.00,-0.0022
1933.00,-0.0022
1932.00,-0.0022
1931.00,-0.0022
1930.00,-0.0022
1929.00,-0.0022
1928.00,-0.0022
1927.00,-0.0022
1926.00,-0.0022
1925.00,-0.0022
1924.00,-0.0022
1923.00,-0.0022
1922.00,-0.0022
1921.00,-0.0022
1920.00,-0.0022
1919.00,-0.0022
1918.00,-0.0022
1917.00,-0.0022
1916.00,-0.0022
1915.00,-0.0022
1914.00,-0.0022
1913.00,-0.0022
1912.00,-0.0022
1911.00,-0.0022
1910.00,-0.0022
1909.00,-0.0022
1908.00,-0.0022
1907.00,-0.0022
1906.00,-0.0022
1905.00,-0.0022
1904.00,-0.0022
1903.00,-0.0022
1902.00,-0.0022
1901.00,-0.0022
1900.00,-0.0022
1899.00,-0.0022
1898.00,-0.0022
1897.00,-0.0022
1896.00,-0.0022
1895.00,-0.0022
1894.00,-0.0022
1893.00,-0.0022
1892.00,-0.0022
1891.00,-0.0022
1890.00,-0.0022
1889.00,-0.0022
1888.00,-0.0022
1887.00,-0.0022
1886.00,-0.0022
1885.00,-0.0022
1884.00,-0.0022
1883.00,-0.0022
1882.00,-0.0022
1881.00,-0.0022
1880.00,-0.0022
1879.00,-0.0022
1878.00,-0.0022
1877.00,-0.0022
1876.00,-0.0022
1875.00,-0.0022
1874.00,-0.0022
1873.00,-0.0022
1872.00,-0.0022
1871.00,-0.0022
1870.00,-0.0022
1869.00,-0.0022
1868.00,-0.0022
1867.00,-0.0022
1866.00,-0.0022
1865.00,-0.0022
1864.00,-0.0022
1863.00,-0.0022
1862.00,-0.0022
1861.00,-0.0022
1860.00,-0.0022
1859.00,-0.0022
1858.00,-0.0022
1857.00,-0.0022
1856.00,-0.0022
1855.00,-0.0022
1854.00,-0.0022
1853.00,-0.0022
1852.00,-0.0022
1851.00,-0.0022
1850.00,-0.0022
1849.00,-0.0022
1848.00,-0.0022
1847.00,-0.0022
1846.00,-0.0022
1845.00,-0.0022
1844.00,-0.0022
1843.00,-0.0022
1842.00,-0.0022
1841.00,-0.0022
1840.00,-0.0022
1839.00,-0.0022
1838.00,-0.0022
1837.00,-0.0022
1836.00,-0.0022
1835.00,-0.0022
1834.00,-0.0022
1833.00,-0.0022
1832.00,-0.0022
1831.00,-0.0022
1830.00,-0.0022
1829.00,-0.0022
1828.00,-0.0022
1827.00,-0.0022
1826.00,-0.0022
1825.00,-0.0022
1824.00,-0.0022
1823.00,-0.0022
1822.00,-0.0022
1821.00,-0.0022
1820.00,-0.0022
1819.00,-0.0022
1818.00,-0.0022
1817.00,-0.0022
1816.00,-0.0022
1815.00,-0.0022
1814.00,-0.0022
1813.00,-0.0022
1812.00,-0.0022
1811.00,-0.0022
1810.00,-0.0022
1809.00,-0.0022
1808.00,-0.0022
1807.00,-0.0022
1806.00,-0.0022
1805.00,-0.0022
1804.00,-0.0022
1803.00,-0.0022
1802.00,-0.0022
1801.00,-0.0022
1800.00,-0.0022
1799.00,-0.0022
1798.00,-0.0022
1797.00,-0.0022
1796.00,-0.0022
1795.00,-0.0022
1794.00,-0.0022
1793.00,-0.0022
1792.00,-0.0022
1791.00,-0.0022
1790.00,-0.0022
1789.00,-0.0022
1788.00,-0.0022
1787.00,-0.0022
1786.00,-0.0022
1785.00,-0.0022
1784.00,-0.0022
1783.00,-0.0022
1782.00,-0.0022
1781.00,-0.0022
1780.00,-0.0022
1779.00,-0.0023
1778.00,-0.0022
1777.00,-0.0022
1776.00,-0.0022
1775.00,-0.0022
1774.00,-0.0022
1773.00,-0.0022
1772.00,-0.0022
1771.00,-0.0022
1770.00,-0.0022
1769.00,-0.0022
1768.00,-0.0022
1767.00,-0.0022
1766.00,-0.0022
1765.00,-0.0022
1764.00,-0.0022
1763.00,-0.0022
1762.00,-0.0022
1761.00,-0.0022
1760.00,-0.0022
1759.00,-0.0022
1758.00,-0.0022
1757.00,-0.0022
1756.00,-0.0022
1755.00,-0.0022
1754.00,-0.0022
1753.00,-0.0022
1752.00,-0.0022
1751.00,-0.0022
1750.00,-0.0022
1749.00,-0.0022
1748.00,-0.0022
1747.00,-0.0022
1746.00,-0.0022
1745.00,-0.0022
1744.00,-0.0022
1743.00,-0.0022
1742.00,-0.0022
1741.00,-0.0022
1740.00,-0.0022
1739.00,-0.0022
1738.00,-0.0022
1737.00,-0.0022
1736.00,-0.0022
1735.00,-0.0022
1734.00,-0.0022
1733.00,-0.0022
1732.00,-0.0022
1731.00,-0.0022
1730.00,-0.0022
1729.00,-0.0022
1728.00,-0.0022
1727.00,-0.0022
1726.00,-0.0022
1725.00,-0.0022
1724.00,-0.0022
1723.00,-0.0022
1722.00,-0.0022
1721.00,-0.0022
1720.00,-0.0022
1719.00,-0.0022
1718.00,-0.0022
1717.00,-0.0022
1716.00,-0.0022
1715.00,-0.0022
1714.00,-0.0022
1713.00,-0.0022
1712.00,-0.0022
1711.00,-0.0022
1710.00,-0.0022
1709.00,-0.0022
1708.00,-0.0022
1707.00,-0.0022
1706.00,-0.0022
1705.00,-0.0022
1704.00,-0.0022
1703.00,-0.0022
1702.00,-0.0022
1701.00,-0.0022
1700.00,-0.0022
1699.00,-0.0022
1698.00,-0.0022
1697.00,-0.0022
1696.00,-0.0022
1695.00,-0.0022
1694.00,-0.0022
1693.00,-0.0022
1692.00,-0.0022
1691.00,-0.0022
1690.00,-0.0022
1689.00,-0.0022
1688.00,-0.0022
1687.00,-0.0022
1686.00,-0.0022
1685.00,-0.0022
1684.00,-0.0022
1683.00,-0.0022
1682.00,-0.0022
1681.00,-0.0022
1680.00,-0.0022
1679.00,-0.0022
1678.00,-0.0022
1677.00,-0.0022
1676.00,-0.0022
1675.00,-0.0022
1674.00,-0.0022
1673.00,-0.0022
1672.00,-0.0022
1671.00,-0.0022
1670.00,-0.0022
1669.00,-0.0022
1668.00,-0.0022
1667.00,-0.0022
1666.00,-0.0022
1665.00,-0.0022
1664.00,-0.0022
1663.00,-0.0022
1662.00,-0.0022
1661.00,-0.0022
1660.00,-0.0022
1659.00,-0.0022
1658.00,-0.0022
1657.00,-0.0022
1656.00,-0.0022
1655.00,-0.0022
1654.00,-0.0022
1653.00,-0.0022
1652.00,-0.0022
1651.00,-0.0022
1650.00,-0.0022
1649.00,-0.0022
1648.00,-0.0022
1647.00,-0.0022
1646.00,-0.0022
1645.00,-0.0022
1644.00,-0.0022
1643.00,-0.0022
1642.00,-0.0022
1641.00,-0.0022
1640.00,-0.0022
1639.00,-0.0022
1638.00,-0.0022
1637.00,-0.0022
1636.00,-0.0022
1635.00,-0.0022
1634.00,-0.0022
1633.00,-0.0022
1632.00,-0.0022
1631.00,-0.0022
1630.00,-0.0022
1629.00,-0.0022
1628.00,-0.0022
1627.00,-0.0023
1626.00,-0.0023
1625.00,-0.0023
1624.00,-0.0023
1623.00,-0.0023
1622.00,-0.0023
1621.00,-0.0023
1620.00,-0.0023
1619.00,-0.0023
1618.00,-0.0023
1617.00,-0.0023
1616.00,-0.0022
1615.00,-0.0022
1614.00,-0.0022
1613.00,-0.0022
1612.00,-0.0022
1611.00,-0.0022
1610.00,-0.0022
1609.00,-0.0022
1608.00,-0.0022
1607.00,-0.0022
1606.00,-0.0022
1605.00,-0.0022
1604.00,-0.0022
1603.00,-0.0022
1602.00,-0.0022
1601.00,-0.0022
1600.00,-0.0022
1599.00,-0.0022
1598.00,-0.0022
1597.00,-0.0022
1596.00,-0.0022
1595.00,-0.0022
1594.00,-0.0022
1593.00,-0.0022
1592.00,-0.0022
1591.00,-0.0022
1590.00,-0.0022
1589.00,-0.0022
1588.00,-0.0022
1587.00,-0.0022
1586.00,-0.0022
1585.00,-0.0022
1584.00,-0.0022
1583.00,-0.0022
1582.00,-0.0022
1581.00,-0.0023
1580.00,-0.0023
1579.00,-0.0023
1578.00,-0.0023
1577.00,-0.0023
1576.00,-0.0023
1575.00,-0.0023
1574.00,-0.0023
1573.00,-0.0023
1572.00,-0.0023
1571.00,-0.0023
1570.00,-0.0023
1569.00,-0.0023
1568.00,-0.0023
1567.00,-0.0022
1566.00,-0.0022
1565.00,-0.0022
1564.00,-0.0022
1563.00,-0.0022
1562.00,-0.0022
1561.00,-0.0022
1560.00,-0.0022
1559.00,-0.0022
1558.00,-0.0022
1557.00,-0.0022
1556.00,-0.0022
1555.00,-0.0022
1554.00,-0.0022
1553.00,-0.0022
1552.00,-0.0022
1551.00,-0.0022
1550.00,-0.0022
1549.00,-0.0022
1548.00,-0.0022
1547.00,-0.0022
1546.00,-0.0022
1545.00,-0.0022
1544.00,-0.0022
1543.00,-0.0022
1542.00,-0.0022
1541.00,-0.0022
1540.00,-0.0022
1539.00,-0.0022
1538.00,-0.0022
1537.00,-0.0022
1536.00,-0.0022
1535.00,-0.0022
1534.00,-0.0022
1533.00,-0.0022
1532.00,-0.0022
1531.00,-0.0022
1530.00,-0.0022
1529.00,-0.0022
1528.00,-0.0022
1527.00,-0.0022
1526.00,-0.0022
1525.00,-0.0022
1524.00,-0.0022
1523.00,-0.0022
1522.00,-0.0022
1521.00,-0.0022
1520.00,-0.0022
1519.00,-0.0022
1518.00,-0.0022
1517.00,-0.0022
1516.00,-0.0022
1515.00,-0.0022
1514.00,-0.0022
1513.00,-0.0022
1512.00,-0.0022
1511.00,-0.0022
1510.00,-0.0022
1509.00,-0.0022
1508.00,-0.0022
1507.00,-0.0022
1506.00,-0.0022
1505.00,-0.0022
1504.00,-0.0022
1503.00,-0.0022
1502.00,-0.0022
1501.00,-0.0022
1500.00,-0.0022
1499.00,-0.0022
1498.00,-0.0022
1497.00,-0.0022
1496.00,-0.0022
1495.00,-0.0022
1494.00,-0.0022
1493.00,-0.0022
1492.00,-0.0022
1491.00,-0.0022
1490.00,-0.0022
1489.00,-0.0022
1488.00,-0.0022
1487.00,-0.0022
1486.00,-0.0022
1485.00,-0.0022
1484.00,-0.0022
1483.00,-0.0022
1482.00,-0.0022
1481.00,-0.0022
1480.00,-0.0022
1479.00,-0.0022
1478.00,-0.0022
1477.00,-0.0022
1476.00,-0.0022
1475.00,-0.0022
1474.00,-0.0022
1473.00,-0.0022
1472.00,-0.0022
1471.00,-0.0022
1470.00,-0.0022
1469.00,-0.0022
1468.00,-0.0022
1467.00,-0.0022
1466.00,-0.0022
1465.00,-0.0022
1464.00,-0.0022
1463.00,-0.0022
1462.00,-0.0022
1461.00,-0.0022
1460.00,-0.0022
1459.00,-0.0022
1458.00,-0.0022
1457.00,-0.0022
1456.00,-0.0022
1455.00,-0.0022
1454.00,-0.0022
1453.00,-0.0022
1452.00,-0.0022
1451.00,-0.0022
1450.00,-0.0022
1449.00,-0.0022
1448.00,-0.0022
1447.00,-0.0022
1446.00,-0.0022
1445.00,-0.0022
1444.00,-0.0022
1443.00,-0.0022
1442.00,-0.0022
1441.00,-0.0022
1440.00,-0.0022
1439.00,-0.0022
1438.00,-0.0022
1437.00,-0.0022
1436.00,-0.0022
1435.00,-0.0022
1434.00,-0.0022
1433.00,-0.0022
1432.00,-0.0022
1431.00,-0.0022
1430.00,-0.0022
1429.00,-0.0022
1428.00,-0.0022
1427.00,-0.0022
1426.00,-0.0022
1425.00,-0.0022
1424.00,-0.0022
1423.00,-0.0022
1422.00,-0.0022
1421.00,-0.0022
1420.00,-0.0022
1419.00,-0.0022
1418.00,-0.0022
1417.00,-0.0022
1416.00,-0.0022
1415.00,-0.0022
1414.00,-0.0022
1413.00,-0.0022
1412.00,-0.0022
1411.00,-0.0022
1410.00,-0.0022
1409.00,-0.0023
1408.00,-0.0022
1407.00,-0.0022
1406.00,-0.0022
1405.00,-0.0022
1404.00,-0.0022
1403.00,-0.0022
1402.00,-0.0022
1401.00,-0.0022
1400.00,-0.0022
1399.00,-0.0022
1398.00,-0.0022
1397.00,-0.0022
1396.00,-0.0022
1395.00,-0.0022
1394.00,-0.0022
1393.00,-0.0022
1392.00,-0.0022
1391.00,-0.0022
1390.00,-0.0022
1389.00,-0.0022
1388.00,-0.0022
1387.00,-0.0022
1386.00,-0.0022
1385.00,-0.0022
1384.00,-0.0022
1383.00,-0.0022
1382.00,-0.0022
1381.00,-0.0022
1380.00,-0.0022
1379.00,-0.0022
1378.00,-0.0022
1377.00,-0.0022
1376.00,-0.0022
1375.00,-0.0022
1374.00,-0.0022
1373.00,-0.0022
1372.00,-0.0022
1371.00,-0.0022
1370.00,-0.0022
1369.00,-0.0022
1368.00,-0.0022
1367.00,-0.0022
1366.00,-0.0022
1365.00,-0.0022
1364.00,-0.0022
1363.00,-0.0022
1362.00,-0.0022
1361.00,-0.0022
1360.00,-0.0022
1359.00,-0.0022
1358.00,-0.0022
1357.00,-0.0022
1356.00,-0.0022
1355.00,-0.0022
1354.00,-0.0022
1353.00,-0.0022
1352.00,-0.0022
1351.00,-0.0022
1350.00,-0.0022
1349.00,-0.0022
1348.00,-0.0022
1347.00,-0.0022
1346.00,-0.0022
1345.00,-0.0022
1344.00,-0.0022
1343.00,-0.0022
1342.00,-0.0022
1341.00,-0.0022
1340.00,-0.0022
1339.00,-0.0022
1338.00,-0.0022
1337.00,-0.0022
1336.00,-0.0022
1335.00,-0.0022
1334.00,-0.0022
1333.00,-0.0022
1332.00,-0.0022
1331.00,-0.0022
1330.00,-0.0022
1329.00,-0.0022
1328.00,-0.0022
1327.00,-0.0022
1326.00,-0.0022
1325.00,-0.0022
1324.00,-0.0022
1323.00,-0.0022
1322.00,-0.0022
1321.00,-0.0022
1320.00,-0.0022
1319.00,-0.0022
1318.00,-0.0022
1317.00,-0.0022
1316.00,-0.0022
1315.00,-0.0022
1314.00,-0.0022
1313.00,-0.0022
1312.00,-0.0022
1311.00,-0.0022
1310.00,-0.0022
1309.00,-0.0022
1308.00,-0.0022
1307.00,-0.0022
1306.00,-0.0022
1305.00,-0.0022
1304.00,-0.0022
1303.00,-0.0022
1302.00,-0.0022
1301.00,-0.0022
1300.00,-0.0022
1299.00,-0.0022
1298.00,-0.0022
1297.00,-0.0022
1296.00,-0.0022
1295.00,-0.0022
1294.00,-0.0022
1293.00,-0.0022
1292.00,-0.0022
1291.00,-0.0022
1290.00,-0.0022
1289.00,-0.0022
1288.00,-0.0022
1287.00,-0.0022
1286.00,-0.0022
1285.00,-0.0022
1284.00,-0.0022
1283.00,-0.0022
1282.00,-0.0022
1281.00,-0.0022
1280.00,-0.0022
1279.00,-0.0022
1278.00,-0.0022
1277.00,-0.0022
1276.00,-0.0022
1275.00,-0.0022
1274.00,-0.0022
1273.00,-0.0022
1272.00,-0.0022
1271.00,-0.0022
1270.00,-0.0022
1269.00,-0.0022
1268.00,-0.0022
1267.00,-0.0022
1266.00,-0.0022
1265.00,-0.0022
1264.00,-0.0022
1263.00,-0.0022
1262.00,-0.0022
1261.00,-0.0022
1260.00,-0.0022
1259.00,-0.0022
1258.00,-0.0022
1257.00,-0.0022
1256.00,-0.0022
1255.00,-0.0022
1254.00,-0.0022
1253.00,-0.0022
1252.00,-0.0022
1251.00,-0.0022
1250.00,-0.0022
1249.00,-0.0022
1248.00,-0.0022
1247.00,-0.0022
1246.00,-0.0022
1245.00,-0.0022
1244.00,-0.0022
1243.00,-0.0022
1242.00,-0.0022
1241.00,-0.0022
1240.00,-0.0022
1239.00,-0.0022
1238.00,-0.0022
1237.00,-0.0022
1236.00,-0.0022
1235.00,-0.0022
1234.00,-0.0022
1233.00,-0.0022
1232.00,-0.0022
1231.00,-0.0022
1230.00,-0.0022
1229.00,-0.0022
1228.00,-0.0022
1227.00,-0.0022
1226.00,-0.0022
1225.00,-0.0022
1224.00,-0.0022
1223.00,-0.0022
1222.00,-0.0022
1221.00,-0.0022
1220.00,-0.0022
1219.00,-0.0022
1218.00,-0.0022
1217.00,-0.0022
1216.00,-0.0022
1215.00,-0.0022
1214.00,-0.0022
1213.00,-0.0022
1212.00,-0.0022
1211.00,-0.0022
1210.00,-0.0022
1209.00,-0.0022
1208.00,-0.0022
1207.00,-0.0022
1206.00,-0.0022
1205.00,-0.0022
1204.00,-0.0022
1203.00,-0.0022
1202.00,-0.0022
1201.00,-0.0022
1200.00,-0.0022
1199.00,-0.0022
1198.00,-0.0022
1197.00,-0.0022
1196.00,-0.0022
1195.00,-0.0022
1194.00,-0.0022
1193.00,-0.0022
1192.00,-0.0022
1191.00,-0.0022
1190.00,-0.0022
1189.00,-0.0022
1188.00,-0.0022
1187.00,-0.0022
1186.00,-0.0022
1185.00,-0.0022
1184.00,-0.0022
1183.00,-0.0022
1182.00,-0.0022
1181.00,-0.0022
1180.00,-0.0022
1179.00,-0.0022
1178.00,-0.0022
1177.00,-0.0022
1176.00,-0.0022
1175.00,-0.0022
1174.00,-0.0022
1173.00,-0.0022
1172.00,-0.0022
1171.00,-0.0022
1170.00,-0.0022
1169.00,-0.0022
1168.00,-0.0022
1167.00,-0.0022
1166.00,-0.0022
1165.00,-0.0022
1164.00,-0.0022
1163.00,-0.0022
1162.00,-0.0022
1161.00,-0.0022
1160.00,-0.0022
1159.00,-0.0022
1158.00,-0.0022
1157.00,-0.0022
1156.00,-0.0022
1155.00,-0.0022
1154.00,-0.0022
1153.00,-0.0022
1152.00,-0.0022
1151.00,-0.0022
1150.00,-0.0022
1149.00,-0.0022
1148.00,-0.0022
1147.00,-0.0022
1146.00,-0.0022
1145.00,-0.0022
1144.00,-0.0022
1143.00,-0.0022
1142.00,-0.0022
1141.00,-0.0022
1140.00,-0.0022
1139.00,-0.0022
1138.00,-0.0022
1137.00,-0.0022
1136.00,-0.0022
1135.00,-0.0022
1134.00,-0.0022
1133.00,-0.0022
1132.00,-0.0022
1131.00,-0.0022
1130.00,-0.0022
1129.00,-0.0022
1128.00,-0.0022
1127.00,-0.0022
1126.00,-0.0022
1125.00,-0.0022
1124.00,-0.0022
1123.00,-0.0022
1122.00,-0.0022
1121.00,-0.0022
1120.00,-0.0022
1119.00,-0.0022
1118.00,-0.0022
1117.00,-0.0022
1116.00,-0.0022
1115.00,-0.0022
1114.00,-0.0022
1113.00,-0.0022
1112.00,-0.0022
1111.00,-0.0022
1110.00,-0.0022
1109.00,-0.0022
1108.00,-0.0022
1107.00,-0.0022
1106.00,-0.0022
1105.00,-0.0022
1104.00,-0.0022
1103.00,-0.0022
1102.00,-0.0022
1101.00,-0.0022
1100.00,-0.0022
1099.00,-0.0022
1098.00,-0.0022
1097.00,-0.0022
1096.00,-0.0022
1095.00,-0.0022
1094.00,-0.0022
1093.00,-0.0022
1092.00,-0.0022
1091.00,-0.0022
1090.00,-0.0023
1089.00,-0.0023
1088.00,-0.0023
1087.00,-0.0023
1086.00,-0.0023
1085.00,-0.0023
1084.00,-0.0023
1083.00,-0.0023
1082.00,-0.0023
1081.00,-0.0023
1080.00,-0.0023
1079.00,-0.0023
1078.00,-0.0023
1077.00,-0.0023
1076.00,-0.0023
1075.00,-0.0023
1074.00,-0.0023
1073.00,-0.0022
1072.00,-0.0022
1071.00,-0.0022
1070.00,-0.0022
1069.00,-0.0022
1068.00,-0.0022
1067.00,-0.0022
1066.00,-0.0022
1065.00,-0.0022
1064.00,-0.0022
1063.00,-0.0022
1062.00,-0.0022
1061.00,-0.0022
1060.00,-0.0022
1059.00,-0.0022
1058.00,-0.0022
1057.00,-0.0022
1056.00,-0.0022
1055.00,-0.0022
1054.00,-0.0022
1053.00,-0.0023
1052.00,-0.0023
1051.00,-0.0022
1050.00,-0.0022
1049.00,-0.0022
1048.00,-0.0022
1047.00,-0.0022
1046.00,-0.0022
1045.00,-0.0022
1044.00,-0.0022
1043.00,-0.0022
1042.00,-0.0023
1041.00,-0.0023
1040.00,-0.0022
1039.00,-0.0022
1038.00,-0.0022
1037.00,-0.0023
1036.00,-0.0023
1035.00,-0.0023
1034.00,-0.0023
1033.00,-0.0023
1032.00,-0.0023
1031.00,-0.0023
1030.00,-0.0023
1029.00,-0.0023
1028.00,-0.0022
1027.00,-0.0022
1026.00,-0.0022
1025.00,-0.0022
1024.00,-0.0022
1023.00,-0.0022
1022.00,-0.0022
1021.00,-0.0023
1020.00,-0.0023
1019.00,-0.0022
1018.00,-0.0022
1017.00,-0.0022
1016.00,-0.0022
1015.00,-0.0022
1014.00,-0.0022
1013.00,-0.0022
1012.00,-0.0022
1011.00,-0.0022
1010.00,-0.0022
1009.00,-0.0022
1008.00,-0.0022
1007.00,-0.0022
1006.00,-0.0022
1005.00,-0.0022
1004.00,-0.0022
1003.00,-0.0022
1002.00,-0.0022
1001.00,-0.0022
1000.00,-0.0022
999.00,-0.0022
998.00,-0.0022
997.00,-0.0022
996.00,-0.0022
995.00,-0.0022
994.00,-0.0022
993.00,-0.0022
992.00,-0.0022
991.00,-0.0022
990.00,-0.0022
989.00,-0.0022
988.00,-0.0022
987.00,-0.0022
986.00,-0.0022
985.00,-0.0022
984.00,-0.0022
983.00,-0.0022
982.00,-0.0022
981.00,-0.0022
980.00,-0.0022
979.00,-0.0022
978.00,-0.0022
977.00,-0.0022
976.00,-0.0022
975.00,-0.0022
974.00,-0.0022
973.00,-0.0022
972.00,-0.0022
971.00,-0.0022
970.00,-0.0022
969.00,-0.0022
968.00,-0.0022
967.00,-0.0022
966.00,-0.0022
965.00,-0.0022
964.00,-0.0022
963.00,-0.0022
962.00,-0.0022
961.00,-0.0022
960.00,-0.0022
959.00,-0.0022
958.00,-0.0022
957.00,-0.0022
956.00,-0.0022
955.00,-0.0022
954.00,-0.0022
953.00,-0.0022
952.00,-0.0022
951.00,-0.0022
950.00,-0.0022
949.00,-0.0022
948.00,-0.0022
947.00,-0.0022
946.00,-0.0022
945.00,-0.0023
944.00,-0.0022
943.00,-0.0022
942.00,-0.0022
941.00,-0.0022
940.00,-0.0022
939.00,-0.0022
938.00,-0.0023
937.00,-0.0023
936.00,-0.0022
935.00,-0.0022
934.00,-0.0022
933.00,-0.0022
932.00,-0.0022
931.00,-0.0022
930.00,-0.0023
929.00,-0.0023
928.00,-0.0023
927.00,-0.0023
926.00,-0.0023
925.00,-0.0022
924.00,-0.0023
923.00,-0.0023
922.00,-0.0023
921.00,-0.0023
920.00,-0.0023
919.00,-0.0022
918.00,-0.0022
917.00,-0.0022
916.00,-0.0022
915.00,-0.0022
914.00,-0.0022
913.00,-0.0022
912.00,-0.0022
911.00,-0.0022
910.00,-0.0022
909.00,-0.0022
908.00,-0.0022
907.00,-0.0022
906.00,-0.0022
905.00,-0.0022
904.00,-0.0022
903.00,-0.0022
902.00,-0.0022
901.00,-0.0022
900.00,-0.0022
899.00,-0.0022
898.00,-0.0022
897.00,-0.0022
896.00,-0.0022
895.00,-0.0022
894.00,-0.0022
893.00,-0.0022
892.00,-0.0022
891.00,-0.0022
890.00,-0.0022
889.00,-0.0023
888.00,-0.0023
887.00,-0.0023
886.00,-0.0023
885.00,-0.0023
884.00,-0.0023
883.00,-0.0023
882.00,-0.0023
881.00,-0.0023
880.00,-0.0023
879.00,-0.0022
878.00,-0.0022
877.00,-0.0022
876.00,-0.0022
875.00,-0.0022
874.00,-0.0023
873.00,-0.0023
872.00,-0.0023
871.00,-0.0022
870.00,-0.0022
869.00,-0.0023
868.00,-0.0023
867.00,-0.0023
866.00,-0.0023
865.00,-0.0023
864.00,-0.0023
863.00,-0.0023
862.00,-0.0022
861.00,-0.0022
860.00,-0.0022
859.00,-0.0022
858.00,-0.0022
857.00,-0.0022
856.00,-0.0022
855.00,-0.0022
854.00,-0.0022
853.00,-0.0022
852.00,-0.0022
851.00,-0.0022
850.00,-0.0022
849.00,-0.0022
848.00,-0.0022
847.00,-0.0022
846.00,-0.0022
845.00,-0.0022
844.00,-0.0022
843.00,-0.0022
842.00,-0.0022
841.00,-0.0022
840.00,-0.0022
839.00,-0.0022
838.00,-0.0022
837.00,-0.0022
836.00,-0.0022
835.00,-0.0022
834.00,-0.0022
833.00,-0.0022
832.00,-0.0022
831.00,-0.0022
830.00,-0.0022
829.00,-0.0022
828.00,-0.0022
827.00,-0.0022
826.00,-0.0022
825.00,-0.0023
824.00,-0.0023
823.00,-0.0023
822.00,-0.0023
821.00,-0.0023
820.00,-0.0023
819.00,-0.0023
818.00,-0.0023
817.00,-0.0023
816.00,-0.0023
815.00,-0.0022
814.00,-0.0022
813.00,-0.0022
812.00,-0.0022
811.00,-0.0022
810.00,-0.0022
809.00,-0.0022
808.00,-0.0022
807.00,-0.0022
806.00,-0.0023
805.00,-0.0023
804.00,-0.0023
803.00,-0.0022
802.00,-0.0022
801.00,-0.0022
800.00,-0.0023
799.00,-0.0023
798.00,-0.0023
797.00,-0.0023
796.00,-0.0022
795.00,-0.0022
794.00,-0.0022
793.00,-0.0022
792.00,-0.0022
791.00,-0.0022
790.00,-0.0022
789.00,-0.0022
788.00,-0.0022
787.00,-0.0022
786.00,-0.0022
785.00,-0.0022
784.00,-0.0022
783.00,-0.0022
782.00,-0.0023
781.00,-0.0023
780.00,-0.0022
779.00,-0.0022
778.00,-0.0022
777.00,-0.0023
776.00,-0.0022
775.00,-0.0022
774.00,-0.0022
773.00,-0.0022
772.00,-0.0022
771.00,-0.0023
770.00,-0.0023
769.00,-0.0022
768.00,-0.0022
767.00,-0.0022
766.00,-0.0022
765.00,-0.0022
764.00,-0.0022
763.00,-0.0022
762.00,-0.0023
761.00,-0.0023
760.00,-0.0023
759.00,-0.0023
758.00,-0.0023
757.00,-0.0022
756.00,-0.0022
755.00,-0.0022
754.00,-0.0022
753.00,-0.0022
752.00,-0.0023
751.00,-0.0023
750.00,-0.0023
749.00,-0.0022
748.00,-0.0022
747.00,-0.0022
746.00,-0.0023
745.00,-0.0023
744.00,-0.0022
743.00,-0.0022
742.00,-0.0022
741.00,-0.0022
740.00,-0.0022
739.00,-0.0022
738.00,-0.0022
737.00,-0.0022
736.00,-0.0022
735.00,-0.0022
734.00,-0.0022
733.00,-0.0022
732.00,-0.0022
731.00,-0.0022
730.00,-0.0022
729.00,-0.0022
728.00,-0.0022
727.00,-0.0022
726.00,-0.0022
725.00,-0.0022
724.00,-0.0022
723.00,-0.0022
722.00,-0.0022
721.00,-0.0022
720.00,-0.0022
719.00,-0.0022
718.00,-0.0022
717.00,-0.0022
716.00,-0.0022
715.00,-0.0022
714.00,-0.0022
713.00,-0.0022
712.00,-0.0022
711.00,-0.0022
710.00,-0.0023
709.00,-0.0023
708.00,-0.0023
707.00,-0.0023
706.00,-0.0023
705.00,-0.0023
704.00,-0.0022
703.00,-0.0022
702.00,-0.0022
701.00,-0.0022
700.00,-0.0022
699.00,-0.0022
698.00,-0.0022
697.00,-0.0022
696.00,-0.0022
695.00,-0.0021
694.00,-0.0021
693.00,-0.0021
692.00,-0.0021
691.00,-0.0021
690.00,-0.0022
689.00,-0.0022
688.00,-0.0021
687.00,-0.0021
686.00,-0.0021
685.00,-0.0020
684.00,-0.0020
683.00,-0.0020
682.00,-0.0020
681.00,-0.0021
680.00,-0.0021
679.00,-0.0021
678.00,-0.0021
677.00,-0.0021
676.00,-0.0021
675.00,-0.0021
674.00,-0.0021
673.00,-0.0021
672.00,-0.0020
671.00,-0.0018
670.00,-0.0014
669.00,-0.0007
668.00,-0.0001
667.00,-0.0003
666.00,-0.0010
665.00,-0.0016
664.00,-0.0019
663.00,-0.0021
662.00,-0.0022
661.00,-0.0022
660.00,-0.0021
659.00,-0.0021
658.00,-0.0020
657.00,-0.0020
656.00,-0.0021
655.00,-0.0021
654.00,-0.0021
653.00,-0.0021
652.00,-0.0021
651.00,-0.0021
650.00,-0.0021
649.00,-0.0021
648.00,-0.0022
647.00,-0.0022
646.00,-0.0022
645.00,-0.0022
644.00,-0.0022
643.00,-0.0022
642.00,-0.0022
641.00,-0.0022
640.00,-0.0022
639.00,-0.0022
638.00,-0.0022
637.00,-0.0022
636.00,-0.0022
635.00,-0.0023
634.00,-0.0023
633.00,-0.0023
632.00,-0.0022
631.00,-0.0022
630.00,-0.0022
629.00,-0.0022
628.00,-0.0023
627.00,-0.0023
626.00,-0.0023
625.00,-0.0022
624.00,-0.0022
623.00,-0.0022
622.00,-0.0022
621.00,-0.0022
620.00,-0.0023
619.00,-0.0023
618.00,-0.0023
617.00,-0.0023
616.00,-0.0023
615.00,-0.0022
614.00,-0.0022
613.00,-0.0022
612.00,-0.0022
611.00,-0.0022
610.00,-0.0022
609.00,-0.0022
608.00,-0.0022
607.00,-0.0022
606.00,-0.0022
605.00,-0.0022
604.00,-0.0022
603.00,-0.0022
602.00,-0.0022
601.00,-0.0023
600.00,-0.0023
599.00,-0.0023
598.00,-0.0021
597.00,-0.0020
596.00,-0.0020
595.00,-0.0021
594.00,-0.0022
593.00,-0.0022
592.00,-0.0023
591.00,-0.0022
590.00,-0.0022
589.00,-0.0022
588.00,-0.0022
587.00,-0.0022
586.00,-0.0022
585.00,-0.0022
584.00,-0.0022
583.00,-0.0022
582.00,-0.0022
581.00,-0.0022
580.00,-0.0022
579.00,-0.0022
578.00,-0.0023
577.00,-0.0023
576.00,-0.0023
575.00,-0.0022
574.00,-0.0021
573.00,-0.0022
572.00,-0.0022
571.00,-0.0022
570.00,-0.0022
569.00,-0.0023
568.00,-0.0023
567.00,-0.0023
566.00,-0.0023
565.00,-0.0022
564.00,-0.0022
563.00,-0.0021
562.00,-0.0021
561.00,-0.0022
560.00,-0.0022
559.00,-0.0022
558.00,-0.0022
557.00,-0.0022
556.00,-0.0022
555.00,-0.0022
554.00,-0.0022
553.00,-0.0022
552.00,-0.0022
551.00,-0.0021
550.00,-0.0021
549.00,-0.0021
548.00,-0.0021
547.00,-0.0021
546.00,-0.0021
545.00,-0.0022
544.00,-0.0022
543.00,-0.0022
542.00,-0.0023
541.00,-0.0023
540.00,-0.0023
539.00,-0.0023
538.00,-0.0022
537.00,-0.0022
536.00,-0.0022
535.00,-0.0022
534.00,-0.0022
533.00,-0.0023
532.00,-0.0023
531.00,-0.0023
530.00,-0.0023
529.00,-0.0022
528.00,-0.0022
527.00,-0.0022
526.00,-0.0022
525.00,-0.0022
524.00,-0.0022
523.00,-0.0022
522.00,-0.0021
521.00,-0.0021
520.00,-0.0021
519.00,-0.0021
518.00,-0.0021
517.00,-0.0022
516.00,-0.0022
515.00,-0.0022
514.00,-0.0022
513.00,-0.0022
512.00,-0.0022
511.00,-0.0022
510.00,-0.0022
509.00,-0.0022
508.00,-0.0022
507.00,-0.0022
506.00,-0.0021
505.00,-0.0021
504.00,-0.0021
503.00,-0.0022
502.00,-0.0022
501.00,-0.0023
500.00,-0.0023
