Created as New Dataset,Sample 027 By Analyst Date Thursday, March 27 2025
cm-1,A
4000.00,-0.0020
3999.00,-0.0020
3998.00,-0.0020
3997.00,-0.0020
3996.00,-0.0020
3995.00,-0.0020
3994.00,-0.0020
3993.00,-0.0020
3992.00,-0.0020
3991.00,-0.0020
3990.00,-0.0020
3989.00,-0.0020
3988.00,-0.0020
3987.00,-0.0020
3986.00,-0.0020
3985.00,-0.0020
3984.00,-0.0020
3983.00,-0.0020
3982.00,-0.0020
3981.00,-0.0020
3980.00,-0.0020
3979.00,-0.0020
3978.00,-0.0020
3977.00,-0.0020
3976.00,-0.0020
3975.00,-0.0020
3974.00,-0.0020
3973.00,-0.0020
3972.00,-0.0020
3971.00,-0.0020
3970.00,-0.0020
3969.00,-0.0020
3968.00,-0.0020
3967.00,-0.0020
3966.00,-0.0020
3965.00,-0.0020
3964.00,-0.0020
3963.00,-0.0020
3962.00,-0.0020
3961.00,-0.0020
3960.00,-0.0020
3959.00,-0.0020
3958.00,-0.0020
3957.00,-0.0020
3956.00,-0.0019
3955.00,-0.0019
3954.00,-0.0019
3953.00,-0.0020
3952.00,-0.0020
3951.00,-0.0020
3950.00,-0.0020
3949.00,-0.0020
3948.00,-0.0020
3947.00,-0.0020
3946.00,-0.0020
3945.00,-0.0020
3944.00,-0.0019
3943.00,-0.0019
3942.00,-0.0019
3941.00,-0.0019
3940.00,-0.0019
3939.00,-0.0019
3938.00,-0.0019
3937.00,-0.0019
3936.00,-0.0019
3935.00,-0.0019
3934.00,-0.0019
3933.00,-0.0019
3932.00,-0.0019
3931.00,-0.0019
3930.00,-0.0019
3929.00,-0.0019
3928.00,-0.0019
3927.00,-0.0019
3926.00,-0.0019
3925.00,-0.0019
3924.00,-0.0019
3923.00,-0.0019
3922.00,-0.0019
3921.00,-0.0019
3920.00,-0.0020
3919.00,-0.0020
3918.00,-0.0020
3917.00,-0.0020
3916.00,-0.0019
3915.00,-0.0019
3914.00,-0.0019
3913.00,-0.0019
3912.00,-0.0019
3911.00,-0.0019
3910.00,-0.0019
3909.00,-0.0019
3908.00,-0.0019
3907.00,-0.0019
3906.00,-0.0019
3905.00,-0.0020
3904.00,-0.0020
3903.00,-0.0021
3902.00,-0.0021
3901.00,-0.0021
3900.00,-0.0020
3899.00,-0.0020
3898.00,-0.0019
3897.00,-0.0019
3896.00,-0.0019
3895.00,-0.0019
3894.00,-0.0019
3893.00,-0.0019
3892.00,-0.0019
3891.00,-0.0019
3890.00,-0.0019
3889.00,-0.0019
3888.00,-0.0020
3887.00,-0.0020
3886.00,-0.0020
3885.00,-0.0019
3884.00,-0.0019
3883.00,-0.0020
3882.00,-0.0020
3881.00,-0.0019
3880.00,-0.0019
3879.00,-0.0019
3878.00,-0.0020
3877.00,-0.0020
3876.00,-0.0020
3875.00,-0.0019
3874.00,-0.0019
3873.00,-0.0019
3872.00,-0.0019
3871.00,-0.0020
3870.00,-0.0020
3869.00,-0.0020
3868.00,-0.0020
3867.00,-0.0020
3866.00,-0.0020
3865.00,-0.0020
3864.00,-0.0020
3863.00,-0.0020
3862.00,-0.0020
3861.00,-0.0020
3860.00,-0.0020
3859.00,-0.0019
3858.00,-0.0018
3857.00,-0.0018
3856.00,-0.0017
3855.00,-0.0017
3854.00,-0.0018
3853.00,-0.0018
3852.00,-0.0018
3851.00,-0.0019
3850.00,-0.0019
3849.00,-0.0019
3848.00,-0.0019
3847.00,-0.0019
3846.00,-0.0019
3845.00,-0.0019
3844.00,-0.0019
3843.00,-0.0019
3842.00,-0.0019
3841.00,-0.0020
3840.00,-0.0020
3839.00,-0.0020
3838.00,-0.0020
3837.00,-0.0020
3836.00,-0.0020
3835.00,-0.0020
3834.00,-0.0020
3833.00,-0.0020
3832.00,-0.0020
3831.00,-0.0019
3830.00,-0.0019
3829.00,-0.0019
3828.00,-0.0019
3827.00,-0.0019
3826.00,-0.0019
3825.00,-0.0019
3824.00,-0.0019
3823.00,-0.0020
3822.00,-0.0020
3821.00,-0.0020
3820.00,-0.0019
3819.00,-0.0020
3818.00,-0.0020
3817.00,-0.0020
3816.00,-0.0020
3815.00,-0.0019
3814.00,-0.0019
3813.00,-0.0019
3812.00,-0.0019
3811.00,-0.0019
3810.00,-0.0018
3809.00,-0.0019
3808.00,-0.0019
3807.00,-0.0019
3806.00,-0.0019
3805.00,-0.0019
3804.00,-0.0019
3803.00,-0.0020
3802.00,-0.0019
3801.00,-0.0019
3800.00,-0.0019
3799.00,-0.0019
3798.00,-0.0020
3797.00,-0.0019
3796.00,-0.0019
3795.00,-0.0019
3794.00,-0.0019
3793.00,-0.0019
3792.00,-0.0018
3791.00,-0.0018
3790.00,-0.0018
3789.00,-0.0018
3788.00,-0.0018
3787.00,-0.0018
3786.00,-0.0018
3785.00,-0.0018
3784.00,-0.0018
3783.00,-0.0018
3782.00,-0.0018
3781.00,-0.0018
3780.00,-0.0018
3779.00,-0.0018
3778.00,-0.0018
3777.00,-0.0018
3776.00,-0.0018
3775.00,-0.0018
3774.00,-0.0018
3773.00,-0.0018
3772.00,-0.0018
3771.00,-0.0018
3770.00,-0.0018
3769.00,-0.0019
3768.00,-0.0019
3767.00,-0.0019
3766.00,-0.0019
3765.00,-0.0019
3764.00,-0.0018
3763.00,-0.0019
3762.00,-0.0019
3761.00,-0.0019
3760.00,-0.0019
3759.00,-0.0019
3758.00,-0.0019
3757.00,-0.0019
3756.00,-0.0019
3755.00,-0.0019
3754.00,-0.0019
3753.00,-0.0020
3752.00,-0.0020
3751.00,-0.0020
3750.00,-0.0021
3749.00,-0.0020
3748.00,-0.0020
3747.00,-0.0020
3746.00,-0.0020
3745.00,-0.0020
3744.00,-0.0020
3743.00,-0.0019
3742.00,-0.0020
3741.00,-0.0020
3740.00,-0.0020
3739.00,-0.0020
3738.00,-0.0021
3737.00,-0.0021
3736.00,-0.0020
3735.00,-0.0020
3734.00,-0.0020
3733.00,-0.0020
3732.00,-0.0019
3731.00,-0.0019
3730.00,-0.0019
3729.00,-0.0019
3728.00,-0.0019
3727.00,-0.0019
3726.00,-0.0019
3725.00,-0.0019
3724.00,-0.0019
3723.00,-0.0019
3722.00,-0.0019
3721.00,-0.0018
3720.00,-0.0018
3719.00,-0.0018
3718.00,-0.0018
3717.00,-0.0018
3716.00,-0.0019
3715.00,-0.0019
3714.00,-0.0019
3713.00,-0.0019
3712.00,-0.0019
3711.00,-0.0019
3710.00,-0.0020
3709.00,-0.0019
3708.00,-0.0019
3707.00,-0.0019
3706.00,-0.0018
3705.00,-0.0018
3704.00,-0.0018
3703.00,-0.0018
3702.00,-0.0018
3701.00,-0.0018
3700.00,-0.0018
3699.00,-0.0018
3698.00,-0.0018
3697.00,-0.0018
3696.00,-0.0018
3695.00,-0.0018
3694.00,-0.0018
3693.00,-0.0019
3692.00,-0.0018
3691.00,-0.0018
3690.00,-0.0018
3689.00,-0.0018
3688.00,-0.0018
3687.00,-0.0018
3686.00,-0.0018
3685.00,-0.0018
3684.00,-0.0018
3683.00,-0.0018
3682.00,-0.0019
3681.00,-0.0019
3680.00,-0.0019
3679.00,-0.0019
3678.00,-0.0019
3677.00,-0.0020
3676.00,-0.0020
3675.00,-0.0019
3674.00,-0.0019
3673.00,-0.0020
3672.00,-0.0020
3671.00,-0.0020
3670.00,-0.0019
3669.00,-0.0018
3668.00,-0.0018
3667.00,-0.0018
3666.00,-0.0018
3665.00,-0.0018
3664.00,-0.0018
3663.00,-0.0017
3662.00,-0.0017
3661.00,-0.0017
3660.00,-0.0017
3659.00,-0.0018
3658.00,-0.0018
3657.00,-0.0018
3656.00,-0.0018
3655.00,-0.0018
3654.00,-0.0019
3653.00,-0.0020
3652.00,-0.0020
3651.00,-0.0020
3650.00,-0.0020
3649.00,-0.0020
3648.00,-0.0021
3647.00,-0.0020
3646.00,-0.0020
3645.00,-0.0019
3644.00,-0.0019
3643.00,-0.0019
3642.00,-0.0019
3641.00,-0.0018
3640.00,-0.0018
3639.00,-0.0018
3638.00,-0.0018
3637.00,-0.0018
3636.00,-0.0018
3635.00,-0.0019
3634.00,-0.0019
3633.00,-0.0019
3632.00,-0.0019
3631.00,-0.0019
3630.00,-0.0020
3629.00,-0.0020
3628.00,-0.0019
3627.00,-0.0019
3626.00,-0.0019
3625.00,-0.0019
3624.00,-0.0019
3623.00,-0.0018
3622.00,-0.0018
3621.00,-0.0018
3620.00,-0.0018
3619.00,-0.0018
3618.00,-0.0018
3617.00,-0.0019
3616.00,-0.0019
3615.00,-0.0020
3614.00,-0.0020
3613.00,-0.0020
3612.00,-0.0020
3611.00,-0.0020
3610.00,-0.0020
3609.00,-0.0020
3608.00,-0.0020
3607.00,-0.0019
3606.00,-0.0019
3605.00,-0.0019
3604.00,-0.0019
3603.00,-0.0018
3602.00,-0.0018
3601.00,-0.0018
3600.00,-0.0018
3599.00,-0.0018
3598.00,-0.0019
3597.00,-0.0019
3596.00,-0.0019
3595.00,-0.0019
3594.00,-0.0019
3593.00,-0.0019
3592.00,-0.0019
3591.00,-0.0020
3590.00,-0.0020
3589.00,-0.0020
3588.00,-0.0019
3587.00,-0.0019
3586.00,-0.0019
3585.00,-0.0019
3584.00,-0.0019
3583.00,-0.0019
3582.00,-0.0019
3581.00,-0.0019
3580.00,-0.0018
3579.00,-0.0018
3578.00,-0.0018
3577.00,-0.0018
3576.00,-0.0018
3575.00,-0.0018
3574.00,-0.0018
3573.00,-0.0018
3572.00,-0.0019
3571.00,-0.0019
3570.00,-0.0019
3569.00,-0.0019
3568.00,-0.0019
3567.00,-0.0019
3566.00,-0.0019
3565.00,-0.0019
3564.00,-0.0019
3563.00,-0.0019
3562.00,-0.0019
3561.00,-0.0018
3560.00,-0.0018
3559.00,-0.0018
3558.00,-0.0018
3557.00,-0.0018
3556.00,-0.0018
3555.00,-0.0018
3554.00,-0.0018
3553.00,-0.0018
3552.00,-0.0018
3551.00,-0.0019
3550.00,-0.0019
3549.00,-0.0019
3548.00,-0.0019
3547.00,-0.0019
3546.00,-0.0019
3545.00,-0.0019
3544.00,-0.0019
3543.00,-0.0019
3542.00,-0.0019
3541.00,-0.0019
3540.00,-0.0019
3539.00,-0.0019
3538.00,-0.0018
3537.00,-0.0018
3536.00,-0.0019
3535.00,-0.0019
3534.00,-0.0019
3533.00,-0.0019
3532.00,-0.0019
3531.00,-0.0019
3530.00,-0.0019
3529.00,-0.0019
3528.00,-0.0019
3527.00,-0.0019
3526.00,-0.0019
3525.00,-0.0019
3524.00,-0.0019
3523.00,-0.0019
3522.00,-0.0019
3521.00,-0.0019
3520.00,-0.0019
3519.00,-0.0018
3518.00,-0.0018
3517.00,-0.0018
3516.00,-0.0018
3515.00,-0.0018
3514.00,-0.0018
3513.00,-0.0018
3512.00,-0.0018
3511.00,-0.0018
3510.00,-0.0018
3509.00,-0.0018
3508.00,-0.0018
3507.00,-0.0018
3506.00,-0.0019
3505.00,-0.0019
3504.00,-0.0019
3503.00,-0.0019
3502.00,-0.0019
3501.00,-0.0019
3500.00,-0.0019
3499.00,-0.0019
3498.00,-0.0019
3497.00,-0.0019
3496.00,-0.0019
3495.00,-0.0019
3494.00,-0.0019
3493.00,-0.0019
3492.00,-0.0019
3491.00,-0.0019
3490.00,-0.0019
3489.00,-0.0019
3488.00,-0.0019
3487.00,-0.0019
3486.00,-0.0019
3485.00,-0.0019
3484.00,-0.0019
3483.00,-0.0019
3482.00,-0.0019
3481.00,-0.0019
3480.00,-0.0019
3479.00,-0.0019
3478.00,-0.0019
3477.00,-0.0019
3476.00,-0.0019
3475.00,-0.0019
3474.00,-0.0019
3473.00,-0.0019
3472.00,-0.0019
3471.00,-0.0019
3470.00,-0.0019
3469.00,-0.0019
3468.00,-0.0019
3467.00,-0.0019
3466.00,-0.0019
3465.00,-0.0019
3464.00,-0.0019
3463.00,-0.0019
3462.00,-0.0019
3461.00,-0.0019
3460.00,-0.0019
3459.00,-0.0019
3458.00,-0.0019
3457.00,-0.0019
3456.00,-0.0019
3455.00,-0.0019
3454.00,-0.0019
3453.00,-0.0019
3452.00,-0.0019
3451.00,-0.0019
3450.00,-0.0019
3449.00,-0.0019
3448.00,-0.0019
3447.00,-0.0019
3446.00,-0.0019
3445.00,-0.0019
3444.00,-0.0019
3443.00,-0.0019
3442.00,-0.0019
3441.00,-0.0019
3440.00,-0.0019
3439.00,-0.0019
3438.00,-0.0019
3437.00,-0.0019
3436.00,-0.0019
3435.00,-0.0019
3434.00,-0.0019
3433.00,-0.0019
3432.00,-0.0019
3431.00,-0.0019
3430.00,-0.0019
3429.00,-0.0019
3428.00,-0.0019
3427.00,-0.0019
3426.00,-0.0019
3425.00,-0.0019
3424.00,-0.0019
3423.00,-0.0019
3422.00,-0.0019
3421.00,-0.0019
3420.00,-0.0019
3419.00,-0.0019
3418.00,-0.0019
3417.00,-0.0019
3416.00,-0.0019
3415.00,-0.0019
3414.00,-0.0019
3413.00,-0.0019
3412.00,-0.0019
3411.00,-0.0019
3410.00,-0.0019
3409.00,-0.0019
3408.00,-0.0019
3407.00,-0.0019
3406.00,-0.0019
3405.00,-0.0019
3404.00,-0.0019
3403.00,-0.0019
3402.00,-0.0019
3401.00,-0.0019
3400.00,-0.0019
3399.00,-0.0019
3398.00,-0.0019
3397.00,-0.0019
3396.00,-0.0019
3395.00,-0.0019
3394.00,-0.0019
3393.00,-0.0019
3392.00,-0.0019
3391.00,-0.0019
3390.00,-0.0019
3389.00,-0.0019
3388.00,-0.0019
3387.00,-0.0019
3386.00,-0.0019
3385.00,-0.0019
3384.00,-0.0019
3383.00,-0.0019
3382.00,-0.0019
3381.00,-0.0019
3380.00,-0.0019
3379.00,-0.0019
3378.00,-0.0019
3377.00,-0.0019
3376.00,-0.0019
3375.00,-0.0019
3374.00,-0.0019
3373.00,-0.0019
3372.00,-0.0019
3371.00,-0.0019
3370.00,-0.0019
3369.00,-0.0019
3368.00,-0.0019
3367.00,-0.0019
3366.00,-0.0019
3365.00,-0.0019
3364.00,-0.0019
3363.00,-0.0019
3362.00,-0.0019
3361.00,-0.0019
3360.00,-0.0019
3359.00,-0.0019
3358.00,-0.0019
3357.00,-0.0019
3356.00,-0.0019
3355.00,-0.0019
3354.00,-0.0019
3353.00,-0.0019
3352.00,-0.0019
3351.00,-0.0019
3350.00,-0.0019
3349.00,-0.0019
3348.00,-0.0019
3347.00,-0.0019
3346.00,-0.0019
3345.00,-0.0019
3344.00,-0.0019
3343.00,-0.0019
3342.00,-0.0019
3341.00,-0.0019
3340.00,-0.0019
3339.00,-0.0019
3338.00,-0.0019
3337.00,-0.0019
3336.00,-0.0019
3335.00,-0.0019
3334.00,-0.0019
3333.00,-0.0019
3332.00,-0.0019
3331.00,-0.0019
3330.00,-0.0019
3329.00,-0.0019
3328.00,-0.0019
3327.00,-0.0019
3326.00,-0.0019
3325.00,-0.0019
3324.00,-0.0019
3323.00,-0.0019
3322.00,-0.0019
3321.00,-0.0019
3320.00,-0.0019
3319.00,-0.0019
3318.00,-0.0019
3317.00,-0.0019
3316.00,-0.0019
3315.00,-0.0019
3314.00,-0.0019
3313.00,-0.0019
3312.00,-0.0019
3311.00,-0.0019
3310.00,-0.0019
3309.00,-0.0019
3308.00,-0.0019
3307.00,-0.0019
3306.00,-0.0019
3305.00,-0.0019
3304.00,-0.0018
3303.00,-0.0018
3302.00,-0.0018
3301.00,-0.0018
3300.00,-0.0018
3299.00,-0.0018
3298.00,-0.0018
3297.00,-0.0018
3296.00,-0.0018
3295.00,-0.0018
3294.00,-0.0018
3293.00,-0.0018
3292.00,-0.0018
3291.00,-0.0018
3290.00,-0.0018
3289.00,-0.0018
3288.00,-0.0018
3287.00,-0.0018
3286.00,-0.0018
3285.00,-0.0018
3284.00,-0.0018
3283.00,-0.0018
3282.00,-0.0018
3281.00,-0.0019
3280.00,-0.0019
3279.00,-0.0019
3278.00,-0.0019
3277.00,-0.0019
3276.00,-0.0019
3275.00,-0.0019
3274.00,-0.0019
3273.00,-0.0019
3272.00,-0.0019
3271.00,-0.0019
3270.00,-0.0019
3269.00,-0.0019
3268.00,-0.0019
3267.00,-0.0019
3266.00,-0.0019
3265.00,-0.0019
3264.00,-0.0019
3263.00,-0.0019
3262.00,-0.0019
3261.00,-0.0019
3260.00,-0.0018
3259.00,-0.0018
3258.00,-0.0018
3257.00,-0.0018
3256.00,-0.0019
3255.00,-0.0019
3254.00,-0.0018
3253.00,-0.0018
3252.00,-0.0018
3251.00,-0.0018
3250.00,-0.0018
3249.00,-0.0018
3248.00,-0.0018
3247.00,-0.0018
3246.00,-0.0018
3245.00,-0.0018
3244.00,-0.0018
3243.00,-0.0018
3242.00,-0.0018
3241.00,-0.0018
3240.00,-0.0018
3239.00,-0.0018
3238.00,-0.0018
3237.00,-0.0018
3236.00,-0.0018
3235.00,-0.0018
3234.00,-0.0018
3233.00,-0.0018
3232.00,-0.0019
3231.00,-0.0019
3230.00,-0.0019
3229.00,-0.0018
3228.00,-0.0018
3227.00,-0.0018
3226.00,-0.0018
3225.00,-0.0018
3224.00,-0.0018
3223.00,-0.0018
3222.00,-0.0019
3221.00,-0.0019
3220.00,-0.0019
3219.00,-0.0019
3218.00,-0.0019
3217.00,-0.0019
3216.00,-0.0019
3215.00,-0.0019
3214.00,-0.0019
3213.00,-0.0019
3212.00,-0.0018
3211.00,-0.0018
3210.00,-0.0018
3209.00,-0.0018
3208.00,-0.0018
3207.00,-0.0018
3206.00,-0.0018
3205.00,-0.0018
3204.00,-0.0018
3203.00,-0.0018
3202.00,-0.0018
3201.00,-0.0018
3200.00,-0.0018
3199.00,-0.0018
3198.00,-0.0018
3197.00,-0.0018
3196.00,-0.0018
3195.00,-0.0018
3194.00,-0.0018
3193.00,-0.0018
3192.00,-0.0018
3191.00,-0.0018
3190.00,-0.0018
3189.00,-0.0018
3188.00,-0.0018
3187.00,-0.0018
3186.00,-0.0018
3185.00,-0.0018
3184.00,-0.0018
3183.00,-0.0018
3182.00,-0.0018
3181.00,-0.0018
3180.00,-0.0018
3179.00,-0.0018
3178.00,-0.0018
3177.00,-0.0018
3176.00,-0.0018
3175.00,-0.0018
3174.00,-0.0018
3173.00,-0.0018
3172.00,-0.0018
3171.00,-0.0018
3170.00,-0.0018
3169.00,-0.0018
3168.00,-0.0018
3167.00,-0.0018
3166.00,-0.0018
3165.00,-0.0019
3164.00,-0.0019
3163.00,-0.0019
3162.00,-0.0018
3161.00,-0.0018
3160.00,-0.0018
3159.00,-0.0018
3158.00,-0.0018
3157.00,-0.0018
3156.00,-0.0018
3155.00,-0.0018
3154.00,-0.0018
3153.00,-0.0018
3152.00,-0.0018
3151.00,-0.0018
3150.00,-0.0018
3149.00,-0.0018
3148.00,-0.0018
3147.00,-0.0018
3146.00,-0.0018
3145.00,-0.0018
3144.00,-0.0018
3143.00,-0.0018
3142.00,-0.0018
3141.00,-0.0018
3140.00,-0.0018
3139.00,-0.0018
3138.00,-0.0018
3137.00,-0.0018
3136.00,-0.0018
3135.00,-0.0018
3134.00,-0.0018
3133.00,-0.0018
3132.00,-0.0018
3131.00,-0.0018
3130.00,-0.0018
3129.00,-0.0018
3128.00,-0.0018
3127.00,-0.0018
3126.00,-0.0018
3125.00,-0.0018
3124.00,-0.0018
3123.00,-0.0018
3122.00,-0.0018
3121.00,-0.0018
3120.00,-0.0018
3119.00,-0.0018
3118.00,-0.0018
3117.00,-0.0018
3116.00,-0.0018
3115.00,-0.0018
3114.00,-0.0018
3113.00,-0.0018
3112.00,-0.0018
3111.00,-0.0018
3110.00,-0.0018
3109.00,-0.0018
3108.00,-0.0018
3107.00,-0.0019
3106.00,-0.0019
3105.00,-0.0018
3104.00,-0.0018
3103.00,-0.0018
3102.00,-0.0018
3101.00,-0.0018
3100.00,-0.0018
3099.00,-0.0018
3098.00,-0.0018
3097.00,-0.0018
3096.00,-0.0018
3095.00,-0.0018
3094.00,-0.0018
3093.00,-0.0018
3092.00,-0.0018
3091.00,-0.0018
3090.00,-0.0018
3089.00,-0.0018
3088.00,-0.0018
3087.00,-0.0018
3086.00,-0.0018
3085.00,-0.0018
3084.00,-0.0018
3083.00,-0.0018
3082.00,-0.0018
3081.00,-0.0018
3080.00,-0.0018
3079.00,-0.0018
3078.00,-0.0018
3077.00,-0.0018
3076.00,-0.0018
3075.00,-0.0018
3074.00,-0.0018
3073.00,-0.0018
3072.00,-0.0018
3071.00,-0.0018
3070.00,-0.0018
3069.00,-0.0018
3068.00,-0.0018
3067.00,-0.0018
3066.00,-0.0018
3065.00,-0.0018
3064.00,-0.0018
3063.00,-0.0018
3062.00,-0.0018
3061.00,-0.0018
3060.00,-0.0018
3059.00,-0.0018
3058.00,-0.0018
3057.00,-0.0018
3056.00,-0.0018
3055.00,-0.0018
3054.00,-0.0018
3053.00,-0.0018
3052.00,-0.0018
3051.00,-0.0018
3050.00,-0.0018
3049.00,-0.0018
3048.00,-0.0018
3047.00,-0.0018
3046.00,-0.0018
3045.00,-0.0018
3044.00,-0.0018
3043.00,-0.0018
3042.00,-0.0018
3041.00,-0.0018
3040.00,-0.0018
3039.00,-0.0018
3038.00,-0.0018
3037.00,-0.0018
3036.00,-0.0018
3035.00,-0.0018
3034.00,-0.0018
3033.00,-0.0018
3032.00,-0.0018
3031.00,-0.0018
3030.00,-0.0018
3029.00,-0.0018
3028.00,-0.0018
3027.00,-0.0018
3026.00,-0.0018
3025.00,-0.0018
3024.00,-0.0018
3023.00,-0.0018
3022.00,-0.0018
3021.00,-0.0018
3020.00,-0.0018
3019.00,-0.0018
3018.00,-0.0018
3017.00,-0.0018
3016.00,-0.0018
3015.00,-0.0018
3014.00,-0.0018
3013.00,-0.0018
3012.00,-0.0018
3011.00,-0.0018
3010.00,-0.0018
3009.00,-0.0018
3008.00,-0.0018
3007.00,-0.0018
3006.00,-0.0018
3005.00,-0.0018
3004.00,-0.0018
3003.00,-0.0018
3002.00,-0.0018
3001.00,-0.0018
3000.00,-0.0018
2999.00,-0.0018
2998.00,-0.0018
2997.00,-0.0018
2996.00,-0.0018
2995.00,-0.0018
2994.00,-0.0018
2993.00,-0.0018
2992.00,-0.0018
2991.00,-0.0018
2990.00,-0.0018
2989.00,-0.0018
2988.00,-0.0018
2987.00,-0.0018
2986.00,-0.0018
2985.00,-0.0018
2984.00,-0.0018
2983.00,-0.0018
2982.00,-0.0018
2981.00,-0.0018
2980.00,-0.0018
2979.00,-0.0018
2978.00,-0.0018
2977.00,-0.0018
2976.00,-0.0018
2975.00,-0.0018
2974.00,-0.0018
2973.00,-0.0018
2972.00,-0.0018
2971.00,-0.0018
2970.00,-0.0018
2969.00,-0.0018
2968.00,-0.0018
2967.00,-0.0018
2966.00,-0.0018
2965.00,-0.0018
2964.00,-0.0018
2963.00,-0.0018
2962.00,-0.0018
2961.00,-0.0018
2960.00,-0.0018
2959.00,-0.0018
2958.00,-0.0018
2957.00,-0.0018
2956.00,-0.0018
2955.00,-0.0018
2954.00,-0.0018
2953.00,-0.0018
2952.00,-0.0018
2951.00,-0.0018
2950.00,-0.0018
2949.00,-0.0018
2948.00,-0.0018
2947.00,-0.0018
2946.00,-0.0018
2945.00,-0.0018
2944.00,-0.0018
2943.00,-0.0018
2942.00,-0.0018
2941.00,-0.0018
2940.00,-0.0018
2939.00,-0.0018
2938.00,-0.0018
2937.00,-0.0018
2936.00,-0.0018
2935.00,-0.0018
2934.00,-0.0018
2933.00,-0.0018
2932.00,-0.0018
2931.00,-0.0018
2930.00,-0.0018
2929.00,-0.0018
2928.00,-0.0018
2927.00,-0.0018
2926.00,-0.0018
2925.00,-0.0018
2924.00,-0.0018
2923.00,-0.0018
2922.00,-0.0018
2921.00,-0.0018
2920.00,-0.0018
2919.00,-0.0018
2918.00,-0.0018
2917.00,-0.0018
2916.00,-0.0018
2915.00,-0.0018
2914.00,-0.0018
2913.00,-0.0018
2912.00,-0.0018
2911.00,-0.0018
2910.00,-0.0018
2909.00,-0.0018
2908.00,-0.0018
2907.00,-0.0018
2906.00,-0.0018
2905.00,-0.0018
2904.00,-0.0018
2903.00,-0.0018
2902.00,-0.0018
2901.00,-0.0018
2900.00,-0.0018
2899.00,-0.0018
2898.00,-0.0018
2897.00,-0.0018
2896.00,-0.0018
2895.00,-0.0018
2894.00,-0.0018
2893.00,-0.0018
2892.00,-0.0018
2891.00,-0.0018
2890.00,-0.0018
2889.00,-0.0018
2888.00,-0.0018
2887.00,-0.0018
2886.00,-0.0018
2885.00,-0.0018
2884.00,-0.0018
2883.00,-0.0018
2882.00,-0.0018
2881.00,-0.0018
2880.00,-0.0018
2879.00,-0.0018
2878.00,-0.0018
2877.00,-0.0018
2876.00,-0.0018
2875.00,-0.0018
2874.00,-0.0018
2873.00,-0.0018
2872.00,-0.0018
2871.00,-0.0018
2870.00,-0.0018
2869.00,-0.0018
2868.00,-0.0018
2867.00,-0.0018
2866.00,-0.0018
2865.00,-0.0018
2864.00,-0.0018
2863.00,-0.0018
2862.00,-0.0018
2861.00,-0.0018
2860.00,-0.0018
2859.00,-0.0018
2858.00,-0.0018
2857.00,-0.0018
2856.00,-0.0018
2855.00,-0.0018
2854.00,-0.0018
2853.00,-0.0019
2852.00,-0.0019
2851.00,-0.0019
2850.00,-0.0019
2849.00,-0.0019
2848.00,-0.0019
2847.00,-0.0019
2846.00,-0.0018
2845.00,-0.0018
2844.00,-0.0018
2843.00,-0.0018
2842.00,-0.0018
2841.00,-0.0018
2840.00,-0.0018
2839.00,-0.0018
2838.00,-0.0018
2837.00,-0.0018
2836.00,-0.0018
2835.00,-0.0018
2834.00,-0.0018
2833.00,-0.0018
2832.00,-0.0018
2831.00,-0.0018
2830.00,-0.0018
2829.00,-0.0018
2828.00,-0.0018
2827.00,-0.0018
2826.00,-0.0018
2825.00,-0.0018
2824.00,-0.0018
2823.00,-0.0018
2822.00,-0.0018
2821.00,-0.0018
2820.00,-0.0018
2819.00,-0.0018
2818.00,-0.0018
2817.00,-0.0018
2816.00,-0.0018
2815.00,-0.0018
2814.00,-0.0018
2813.00,-0.0018
2812.00,-0.0018
2811.00,-0.0018
2810.00,-0.0018
2809.00,-0.0018
2808.00,-0.0018
2807.00,-0.0018
2806.00,-0.0018
2805.00,-0.0018
2804.00,-0.0018
2803.00,-0.0018
2802.00,-0.0018
2801.00,-0.0018
2800.00,-0.0018
2799.00,-0.0018
2798.00,-0.0018
2797.00,-0.0018
2796.00,-0.0018
2795.00,-0.0018
2794.00,-0.0018
2793.00,-0.0018
2792.00,-0.0018
2791.00,-0.0018
2790.00,-0.0018
2789.00,-0.0018
2788.00,-0.0018
2787.00,-0.0018
2786.00,-0.0018
2785.00,-0.0018
2784.00,-0.0018
2783.00,-0.0018
2782.00,-0.0018
2781.00,-0.0018
2780.00,-0.0018
2779.00,-0.0018
2778.00,-0.0018
2777.00,-0.0018
2776.00,-0.0018
2775.00,-0.0018
2774.00,-0.0018
2773.00,-0.0018
2772.00,-0.0018
2771.00,-0.0018
2770.00,-0.0018
2769.00,-0.0018
2768.00,-0.0018
2767.00,-0.0018
2766.00,-0.0018
2765.00,-0.0018
2764.00,-0.0018
2763.00,-0.0018
2762.00,-0.0018
2761.00,-0.0018
2760.00,-0.0018
2759.00,-0.0018
2758.00,-0.0018
2757.00,-0.0018
2756.00,-0.0018
2755.00,-0.0018
2754.00,-0.0018
2753.00,-0.0018
2752.00,-0.0018
2751.00,-0.0018
2750.00,-0.0018
2749.00,-0.0018
2748.00,-0.0018
2747.00,-0.0018
2746.00,-0.0018
2745.00,-0.0018
2744.00,-0.0018
2743.00,-0.0018
2742.00,-0.0018
2741.00,-0.0018
2740.00,-0.0018
2739.00,-0.0018
2738.00,-0.0018
2737.00,-0.0018
2736.00,-0.0018
2735.00,-0.0018
2734.00,-0.0018
2733.00,-0.0018
2732.00,-0.0018
2731.00,-0.0018
2730.00,-0.0018
2729.00,-0.0018
2728.00,-0.0018
2727.00,-0.0018
2726.00,-0.0018
2725.00,-0.0018
2724.00,-0.0018
2723.00,-0.0018
2722.00,-0.0018
2721.00,-0.0018
2720.00,-0.0018
2719.00,-0.0018
2718.00,-0.0018
2717.00,-0.0018
2716.00,-0.0018
2715.00,-0.0018
2714.00,-0.0018
2713.00,-0.0018
2712.00,-0.0018
2711.00,-0.0018
2710.00,-0.0018
2709.00,-0.0018
2708.00,-0.0018
2707.00,-0.0018
2706.00,-0.0018
2705.00,-0.0018
2704.00,-0.0018
2703.00,-0.0018
2702.00,-0.0018
2701.00,-0.0018
2700.00,-0.0018
2699.00,-0.0018
2698.00,-0.0018
2697.00,-0.0018
2696.00,-0.0018
2695.00,-0.0018
2694.00,-0.0018
2693.00,-0.0018
2692.00,-0.0018
2691.00,-0.0018
2690.00,-0.0018
2689.00,-0.0018
2688.00,-0.0018
2687.00,-0.0018
2686.00,-0.0018
2685.00,-0.0018
2684.00,-0.0018
2683.00,-0.0018
2682.00,-0.0018
2681.00,-0.0018
2680.00,-0.0018
2679.00,-0.0018
2678.00,-0.0018
2677.00,-0.0018
2676.00,-0.0018
2675.00,-0.0018
2674.00,-0.0018
2673.00,-0.0018
2672.00,-0.0018
2671.00,-0.0018
2670.00,-0.0018
2669.00,-0.0018
2668.00,-0.0018
2667.00,-0.0018
2666.00,-0.0018
2665.00,-0.0018
2664.00,-0.0018
2663.00,-0.0018
2662.00,-0.0018
2661.00,-0.0018
2660.00,-0.0018
2659.00,-0.0018
2658.00,-0.0018
2657.00,-0.0018
2656.00,-0.0018
2655.00,-0.0018
2654.00,-0.0018
2653.00,-0.0018
2652.00,-0.0018
2651.00,-0.0018
2650.00,-0.0018
2649.00,-0.0018
2648.00,-0.0018
2647.00,-0.0018
2646.00,-0.0018
2645.00,-0.0018
2644.00,-0.0018
2643.00,-0.0018
2642.00,-0.0018
2641.00,-0.0018
2640.00,-0.0019
2639.00,-0.0019
2638.00,-0.0019
2637.00,-0.0019
2636.00,-0.0019
2635.00,-0.0018
2634.00,-0.0018
2633.00,-0.0019
2632.00,-0.0019
2631.00,-0.0019
2630.00,-0.0019
2629.00,-0.0019
2628.00,-0.0019
2627.00,-0.0019
2626.00,-0.0018
2625.00,-0.0018
2624.00,-0.0018
2623.00,-0.0018
2622.00,-0.0018
2621.00,-0.0018
2620.00,-0.0018
2619.00,-0.0018
2618.00,-0.0018
2617.00,-0.0018
2616.00,-0.0018
2615.00,-0.0018
2614.00,-0.0018
2613.00,-0.0018
2612.00,-0.0018
2611.00,-0.0018
2610.00,-0.0018
2609.00,-0.0018
2608.00,-0.0018
2607.00,-0.0018
2606.00,-0.0018
2605.00,-0.0018
2604.00,-0.0018
2603.00,-0.0018
2602.00,-0.0018
2601.00,-0.0018
2600.00,-0.0018
2599.00,-0.0018
2598.00,-0.0018
2597.00,-0.0018
2596.00,-0.0018
2595.00,-0.0018
2594.00,-0.0018
2593.00,-0.0018
2592.00,-0.0019
2591.00,-0.0019
2590.00,-0.0019
2589.00,-0.0019
2588.00,-0.0019
2587.00,-0.0019
2586.00,-0.0019
2585.00,-0.0019
2584.00,-0.0019
2583.00,-0.0019
2582.00,-0.0019
2581.00,-0.0019
2580.00,-0.0019
2579.00,-0.0019
2578.00,-0.0019
2577.00,-0.0019
2576.00,-0.0019
2575.00,-0.0019
2574.00,-0.0019
2573.00,-0.0019
2572.00,-0.0019
2571.00,-0.0019
2570.00,-0.0019
2569.00,-0.0018
2568.00,-0.0018
2567.00,-0.0018
2566.00,-0.0018
2565.00,-0.0018
2564.00,-0.0018
2563.00,-0.0018
2562.00,-0.0018
2561.00,-0.0018
2560.00,-0.0018
2559.00,-0.0018
2558.00,-0.0018
2557.00,-0.0018
2556.00,-0.0018
2555.00,-0.0018
2554.00,-0.0018
2553.00,-0.0018
2552.00,-0.0018
2551.00,-0.0018
2550.00,-0.0018
2549.00,-0.0018
2548.00,-0.0018
2547.00,-0.0018
2546.00,-0.0018
2545.00,-0.0018
2544.00,-0.0018
2543.00,-0.0018
2542.00,-0.0018
2541.00,-0.0018
2540.00,-0.0018
2539.00,-0.0018
2538.00,-0.0019
2537.00,-0.0019
2536.00,-0.0019
2535.00,-0.0019
2534.00,-0.0019
2533.00,-0.0019
2532.00,-0.0019
2531.00,-0.0019
2530.00,-0.0019
2529.00,-0.0019
2528.00,-0.0019
2527.00,-0.0019
2526.00,-0.0019
2525.00,-0.0019
2524.00,-0.0019
2523.00,-0.0019
2522.00,-0.0019
2521.00,-0.0019
2520.00,-0.0019
2519.00,-0.0019
2518.00,-0.0019
2517.00,-0.0019
2516.00,-0.0018
2515.00,-0.0018
2514.00,-0.0018
2513.00,-0.0018
2512.00,-0.0018
2511.00,-0.0018
2510.00,-0.0018
2509.00,-0.0018
2508.00,-0.0018
2507.00,-0.0018
2506.00,-0.0018
2505.00,-0.0018
2504.00,-0.0018
2503.00,-0.0018
2502.00,-0.0018
2501.00,-0.0018
2500.00,-0.0018
2499.00,-0.0018
2498.00,-0.0018
2497.00,-0.0018
2496.00,-0.0018
2495.00,-0.0018
2494.00,-0.0018
2493.00,-0.0018
2492.00,-0.0018
2491.00,-0.0018
2490.00,-0.0018
2489.00,-0.0018
2488.00,-0.0018
2487.00,-0.0018
2486.00,-0.0018
2485.00,-0.0018
2484.00,-0.0018
2483.00,-0.0018
2482.00,-0.0018
2481.00,-0.0018
2480.00,-0.0018
2479.00,-0.0019
2478.00,-0.0019
2477.00,-0.0019
2476.00,-0.0019
2475.00,-0.0019
2474.00,-0.0019
2473.00,-0.0019
2472.00,-0.0019
2471.00,-0.0019
2470.00,-0.0019
2469.00,-0.0019
2468.00,-0.0019
2467.00,-0.0019
2466.00,-0.0019
2465.00,-0.0019
2464.00,-0.0019
2463.00,-0.0019
2462.00,-0.0018
2461.00,-0.0018
2460.00,-0.0018
2459.00,-0.0018
2458.00,-0.0018
2457.00,-0.0018
2456.00,-0.0018
2455.00,-0.0018
2454.00,-0.0018
2453.00,-0.0018
2452.00,-0.0018
2451.00,-0.0018
2450.00,-0.0018
2449.00,-0.0018
2448.00,-0.0018
2447.00,-0.0018
2446.00,-0.0018
2445.00,-0.0018
2444.00,-0.0018
2443.00,-0.0018
2442.00,-0.0018
2441.00,-0.0018
2440.00,-0.0018
2439.00,-0.0018
2438.00,-0.0018
2437.00,-0.0018
2436.00,-0.0018
2435.00,-0.0018
2434.00,-0.0018
2433.00,-0.0019
2432.00,-0.0019
2431.00,-0.0019
2430.00,-0.0019
2429.00,-0.0019
2428.00,-0.0019
2427.00,-0.0019
2426.00,-0.0019
2425.00,-0.0019
2424.00,-0.0019
2423.00,-0.0019
2422.00,-0.0019
2421.00,-0.0019
2420.00,-0.0019
2419.00,-0.0019
2418.00,-0.0019
2417.00,-0.0019
2416.00,-0.0019
2415.00,-0.0019
2414.00,-0.0019
2413.00,-0.0019
2412.00,-0.0019
2411.00,-0.0019
2410.00,-0.0019
2409.00,-0.0019
2408.00,-0.0019
2407.00,-0.0019
2406.00,-0.0018
2405.00,-0.0018
2404.00,-0.0018
2403.00,-0.0018
2402.00,-0.0018
2401.00,-0.0018
2400.00,-0.0018
2399.00,-0.0018
2398.00,-0.0018
2397.00,-0.0018
2396.00,-0.0018
2395.00,-0.0018
2394.00,-0.0018
2393.00,-0.0018
2392.00,-0.0018
2391.00,-0.0018
2390.00,-0.0018
2389.00,-0.0019
2388.00,-0.0019
2387.00,-0.0019
2386.00,-0.0019
2385.00,-0.0019
2384.00,-0.0019
2383.00,-0.0019
2382.00,-0.0019
2381.00,-0.0019
2380.00,-0.0018
2379.00,-0.0017
2378.00,-0.0017
2377.00,-0.0016
2376.00,-0.0016
2375.00,-0.0017
2374.00,-0.0017
2373.00,-0.0018
2372.00,-0.0019
2371.00,-0.0019
2370.00,-0.0019
2369.00,-0.0019
2368.00,-0.0019
2367.00,-0.0019
2366.00,-0.0019
2365.00,-0.0019
2364.00,-0.0019
2363.00,-0.0019
2362.00,-0.0020
2361.00,-0.0020
2360.00,-0.0021
2359.00,-0.0021
2358.00,-0.0021
2357.00,-0.0021
2356.00,-0.0021
2355.00,-0.0021
2354.00,-0.0020
2353.00,-0.0020
2352.00,-0.0020
2351.00,-0.0021
2350.00,-0.0022
2349.00,-0.0023
2348.00,-0.0023
2347.00,-0.0022
2346.00,-0.0020
2345.00,-0.0020
2344.00,-0.0020
2343.00,-0.0021
2342.00,-0.0022
2341.00,-0.0021
2340.00,-0.0021
2339.00,-0.0021
2338.00,-0.0021
2337.00,-0.0021
2336.00,-0.0020
2335.00,-0.0021
2334.00,-0.0021
2333.00,-0.0021
2332.00,-0.0020
2331.00,-0.0021
2330.00,-0.0021
2329.00,-0.0021
2328.00,-0.0022
2327.00,-0.0022
2326.00,-0.0022
2325.00,-0.0023
2324.00,-0.0023
2323.00,-0.0022
2322.00,-0.0022
2321.00,-0.0022
2320.00,-0.0022
2319.00,-0.0022
2318.00,-0.0022
2317.00,-0.0022
2316.00,-0.0021
2315.00,-0.0021
2314.00,-0.0020
2313.00,-0.0020
2312.00,-0.0020
2311.00,-0.0020
2310.00,-0.0021
2309.00,-0.0021
2308.00,-0.0021
2307.00,-0.0020
2306.00,-0.0020
2305.00,-0.0020
2304.00,-0.0020
2303.00,-0.0020
2302.00,-0.0020
2301.00,-0.0020
2300.00,-0.0020
2299.00,-0.0020
2298.00,-0.0020
2297.00,-0.0020
2296.00,-0.0019
2295.00,-0.0019
2294.00,-0.0019
2293.00,-0.0019
2292.00,-0.0019
2291.00,-0.0019
2290.00,-0.0019
2289.00,-0.0019
2288.00,-0.0019
2287.00,-0.0019
2286.00,-0.0019
2285.00,-0.0019
2284.00,-0.0019
2283.00,-0.0019
2282.00,-0.0019
2281.00,-0.0018
2280.00,-0.0018
2279.00,-0.0018
2278.00,-0.0018
2277.00,-0.0018
2276.00,-0.0018
2275.00,-0.0018
2274.00,-0.0018
2273.00,-0.0018
2272.00,-0.0018
2271.00,-0.0019
2270.00,-0.0019
2269.00,-0.0019
2268.00,-0.0019
2267.00,-0.0019
2266.00,-0.0019
2265.00,-0.0019
2264.00,-0.0019
2263.00,-0.0019
2262.00,-0.0019
2261.00,-0.0019
2260.00,-0.0019
2259.00,-0.0019
2258.00,-0.0019
2257.00,-0.0019
2256.00,-0.0019
2255.00,-0.0019
2254.00,-0.0019
2253.00,-0.0019
2252.00,-0.0019
2251.00,-0.0019
2250.00,-0.0019
2249.00,-0.0019
2248.00,-0.0018
2247.00,-0.0018
2246.00,-0.0018
2245.00,-0.0018
2244.00,-0.0018
2243.00,-0.0018
2242.00,-0.0018
2241.00,-0.0018
2240.00,-0.0018
2239.00,-0.0018
2238.00,-0.0018
2237.00,-0.0018
2236.00,-0.0018
2235.00,-0.0018
2234.00,-0.0018
2233.00,-0.0018
2232.00,-0.0018
2231.00,-0.0018
2230.00,-0.0018
2229.00,-0.0018
2228.00,-0.0018
2227.00,-0.0018
2226.00,-0.0018
2225.00,-0.0018
2224.00,-0.0018
2223.00,-0.0018
2222.00,-0.0018
2221.00,-0.0018
2220.00,-0.0018
2219.00,-0.0018
2218.00,-0.0018
2217.00,-0.0018
2216.00,-0.0018
2215.00,-0.0018
2214.00,-0.0018
2213.00,-0.0018
2212.00,-0.0018
2211.00,-0.0018
2210.00,-0.0018
2209.00,-0.0019
2208.00,-0.0019
2207.00,-0.0019
2206.00,-0.0019
2205.00,-0.0019
2204.00,-0.0019
2203.00,-0.0019
2202.00,-0.0018
2201.00,-0.0018
2200.00,-0.0018
2199.00,-0.0018
2198.00,-0.0018
2197.00,-0.0018
2196.00,-0.0018
2195.00,-0.0018
2194.00,-0.0018
2193.00,-0.0018
2192.00,-0.0018
2191.00,-0.0018
2190.00,-0.0018
2189.00,-0.0018
2188.00,-0.0018
2187.00,-0.0018
2186.00,-0.0018
2185.00,-0.0018
2184.00,-0.0018
2183.00,-0.0018
2182.00,-0.0018
2181.00,-0.0018
2180.00,-0.0018
2179.00,-0.0018
2178.00,-0.0018
2177.00,-0.0018
2176.00,-0.0018
2175.00,-0.0018
2174.00,-0.0018
2173.00,-0.0018
2172.00,-0.0018
2171.00,-0.0018
2170.00,-0.0018
2169.00,-0.0018
2168.00,-0.0018
2167.00,-0.0018
2166.00,-0.0018
2165.00,-0.0019
2164.00,-0.0019
2163.00,-0.0019
2162.00,-0.0019
2161.00,-0.0019
2160.00,-0.0019
2159.00,-0.0019
2158.00,-0.0019
2157.00,-0.0019
2156.00,-0.0019
2155.00,-0.0019
2154.00,-0.0019
2153.00,-0.0019
2152.00,-0.0019
2151.00,-0.0019
2150.00,-0.0019
2149.00,-0.0019
2148.00,-0.0019
2147.00,-0.0018
2146.00,-0.0018
2145.00,-0.0018
2144.00,-0.0018
2143.00,-0.0018
2142.00,-0.0018
2141.00,-0.0018
2140.00,-0.0018
2139.00,-0.0018
2138.00,-0.0018
2137.00,-0.0018
2136.00,-0.0018
2135.00,-0.0018
2134.00,-0.0018
2133.00,-0.0018
2132.00,-0.0018
2131.00,-0.0018
2130.00,-0.0018
2129.00,-0.0018
2128.00,-0.0018
2127.00,-0.0018
2126.00,-0.0018
2125.00,-0.0018
2124.00,-0.0018
2123.00,-0.0018
2122.00,-0.0018
2121.00,-0.0018
2120.00,-0.0018
2119.00,-0.0018
2118.00,-0.0018
2117.00,-0.0018
2116.00,-0.0018
2115.00,-0.0018
2114.00,-0.0018
2113.00,-0.0018
2112.00,-0.0018
2111.00,-0.0019
2110.00,-0.0019
2109.00,-0.0019
2108.00,-0.0019
2107.00,-0.0019
2106.00,-0.0019
2105.00,-0.0019
2104.00,-0.0019
2103.00,-0.0019
2102.00,-0.0019
2101.00,-0.0019
2100.00,-0.0019
2099.00,-0.0019
2098.00,-0.0019
2097.00,-0.0019
2096.00,-0.0019
2095.00,-0.0019
2094.00,-0.0019
2093.00,-0.0019
2092.00,-0.0019
2091.00,-0.0019
2090.00,-0.0019
2089.00,-0.0019
2088.00,-0.0019
2087.00,-0.0018
2086.00,-0.0018
2085.00,-0.0018
2084.00,-0.0018
2083.00,-0.0018
2082.00,-0.0018
2081.00,-0.0018
2080.00,-0.0018
2079.00,-0.0018
2078.00,-0.0018
2077.00,-0.0018
2076.00,-0.0018
2075.00,-0.0018
2074.00,-0.0018
2073.00,-0.0018
2072.00,-0.0018
2071.00,-0.0018
2070.00,-0.0018
2069.00,-0.0018
2068.00,-0.0018
2067.00,-0.0018
2066.00,-0.0018
2065.00,-0.0018
2064.00,-0.0018
2063.00,-0.0018
2062.00,-0.0018
2061.00,-0.0018
2060.00,-0.0018
2059.00,-0.0018
2058.00,-0.0018
2057.00,-0.0018
2056.00,-0.0018
2055.00,-0.0019
2054.00,-0.0019
2053.00,-0.0019
2052.00,-0.0019
2051.00,-0.0019
2050.00,-0.0019
2049.00,-0.0019
2048.00,-0.0019
2047.00,-0.0019
2046.00,-0.0019
2045.00,-0.0019
2044.00,-0.0019
2043.00,-0.0019
2042.00,-0.0019
2041.00,-0.0018
2040.00,-0.0018
2039.00,-0.0018
2038.00,-0.0018
2037.00,-0.0018
2036.00,-0.0018
2035.00,-0.0018
2034.00,-0.0018
2033.00,-0.0018
2032.00,-0.0018
2031.00,-0.0018
2030.00,-0.0018
2029.00,-0.0018
2028.00,-0.0018
2027.00,-0.0018
2026.00,-0.0018
2025.00,-0.0018
2024.00,-0.0018
2023.00,-0.0018
2022.00,-0.0018
2021.00,-0.0018
2020.00,-0.0018
2019.00,-0.0018
2018.00,-0.0018
2017.00,-0.0018
2016.00,-0.0018
2015.00,-0.0018
2014.00,-0.0018
2013.00,-0.0018
2012.00,-0.0018
2011.00,-0.0018
2010.00,-0.0018
2009.00,-0.0018
2008.00,-0.0018
2007.00,-0.0018
2006.00,-0.0018
2005.00,-0.0019
2004.00,-0.0019
2003.00,-0.0019
2002.00,-0.0019
2001.00,-0.0019
2000.00,-0.0019
1999.00,-0.0019
1998.00,-0.0019
1997.00,-0.0019
1996.00,-0.0019
1995.00,-0.0019
1994.00,-0.0019
1993.00,-0.0019
1992.00,-0.0019
1991.00,-0.0019
1990.00,-0.0019
1989.00,-0.0019
1988.00,-0.0019
1987.00,-0.0019
1986.00,-0.0019
1985.00,-0.0019
1984.00,-0.0018
1983.00,-0.0018
1982.00,-0.0018
1981.00,-0.0018
1980.00,-0.0018
1979.00,-0.0018
1978.00,-0.0018
1977.00,-0.0018
1976.00,-0.0018
1975.00,-0.0018
1974.00,-0.0018
1973.00,-0.0018
1972.00,-0.0018
1971.00,-0.0018
1970.00,-0.0018
1969.00,-0.0018
1968.00,-0.0018
1967.00,-0.0018
1966.00,-0.0018
1965.00,-0.0018
1964.00,-0.0018
1963.00,-0.0018
1962.00,-0.0018
1961.00,-0.0018
1960.00,-0.0018
1959.00,-0.0018
1958.00,-0.0018
1957.00,-0.0018
1956.00,-0.0018
1955.00,-0.0018
1954.00,-0.0018
1953.00,-0.0018
1952.00,-0.0019
1951.00,-0.0019
1950.00,-0.0019
1949.00,-0.0018
1948.00,-0.0018
1947.00,-0.0019
1946.00,-0.0019
1945.00,-0.0019
1944.00,-0.0018
1943.00,-0.0018
1942.00,-0.0018
1941.00,-0.0019
1940.00,-0.0019
1939.00,-0.0019
1938.00,-0.0019
1937.00,-0.0019
1936.00,-0.0019
1935.00,-0.0019
1934.00,-0.0019
1933.00,-0.0018
1932.00,-0.0018
1931.00,-0.0018
1930.00,-0.0018
1929.00,-0.0018
1928.00,-0.0018
1927.00,-0.0018
1926.00,-0.0018
1925.00,-0.0018
1924.00,-0.0018
1923.00,-0.0018
1922.00,-0.0018
1921.00,-0.0018
1920.00,-0.0018
1919.00,-0.0019
1918.00,-0.0019
1917.00,-0.0019
1916.00,-0.0018
1915.00,-0.0018
1914.00,-0.0018
1913.00,-0.0018
1912.00,-0.0018
1911.00,-0.0018
1910.00,-0.0018
1909.00,-0.0018
1908.00,-0.0018
1907.00,-0.0018
1906.00,-0.0018
1905.00,-0.0018
1904.00,-0.0018
1903.00,-0.0018
1902.00,-0.0018
1901.00,-0.0018
1900.00,-0.0018
1899.00,-0.0019
1898.00,-0.0019
1897.00,-0.0018
1896.00,-0.0018
1895.00,-0.0018
1894.00,-0.0019
1893.00,-0.0019
1892.00,-0.0019
1891.00,-0.0019
1890.00,-0.0018
1889.00,-0.0018
1888.00,-0.0018
1887.00,-0.0019
1886.00,-0.0019
1885.00,-0.0019
1884.00,-0.0018
1883.00,-0.0018
1882.00,-0.0019
1881.00,-0.0019
1880.00,-0.0018
1879.00,-0.0018
1878.00,-0.0018
1877.00,-0.0018
1876.00,-0.0018
1875.00,-0.0018
1874.00,-0.0019
1873.00,-0.0019
1872.00,-0.0019
1871.00,-0.0019
1870.00,-0.0018
1869.00,-0.0018
1868.00,-0.0018
1867.00,-0.0018
1866.00,-0.0018
1865.00,-0.0018
1864.00,-0.0018
1863.00,-0.0018
1862.00,-0.0018
1861.00,-0.0018
1860.00,-0.0018
1859.00,-0.0018
1858.00,-0.0018
1857.00,-0.0018
1856.00,-0.0018
1855.00,-0.0018
1854.00,-0.0018
1853.00,-0.0018
1852.00,-0.0018
1851.00,-0.0018
1850.00,-0.0018
1849.00,-0.0018
1848.00,-0.0018
1847.00,-0.0018
1846.00,-0.0019
1845.00,-0.0019
1844.00,-0.0019
1843.00,-0.0019
1842.00,-0.0019
1841.00,-0.0019
1840.00,-0.0019
1839.00,-0.0019
1838.00,-0.0019
1837.00,-0.0019
1836.00,-0.0019
1835.00,-0.0019
1834.00,-0.0019
1833.00,-0.0019
1832.00,-0.0019
1831.00,-0.0018
1830.00,-0.0018
1829.00,-0.0018
1828.00,-0.0019
1827.00,-0.0019
1826.00,-0.0019
1825.00,-0.0019
1824.00,-0.0019
1823.00,-0.0019
1822.00,-0.0019
1821.00,-0.0019
1820.00,-0.0019
1819.00,-0.0018
1818.00,-0.0018
1817.00,-0.0018
1816.00,-0.0018
1815.00,-0.0018
1814.00,-0.0018
1813.00,-0.0018
1812.00,-0.0018
1811.00,-0.0018
1810.00,-0.0018
1809.00,-0.0018
1808.00,-0.0018
1807.00,-0.0018
1806.00,-0.0018
1805.00,-0.0019
1804.00,-0.0019
1803.00,-0.0019
1802.00,-0.0019
1801.00,-0.0019
1800.00,-0.0019
1799.00,-0.0019
1798.00,-0.0019
1797.00,-0.0019
1796.00,-0.0019
1795.00,-0.0019
1794.00,-0.0019
1793.00,-0.0020
1792.00,-0.0019
1791.00,-0.0019
1790.00,-0.0019
1789.00,-0.0019
1788.00,-0.0019
1787.00,-0.0019
1786.00,-0.0019
1785.00,-0.0019
1784.00,-0.0019
1783.00,-0.0019
1782.00,-0.0019
1781.00,-0.0019
1780.00,-0.0019
1779.00,-0.0019
1778.00,-0.0019
1777.00,-0.0019
1776.00,-0.0019
1775.00,-0.0019
1774.00,-0.0019
1773.00,-0.0019
1772.00,-0.0019
1771.00,-0.0019
1770.00,-0.0019
1769.00,-0.0019
1768.00,-0.0019
1767.00,-0.0019
1766.00,-0.0019
1765.00,-0.0019
1764.00,-0.0019
1763.00,-0.0018
1762.00,-0.0018
1761.00,-0.0018
1760.00,-0.0019
1759.00,-0.0019
1758.00,-0.0019
1757.00,-0.0019
1756.00,-0.0019
1755.00,-0.0019
1754.00,-0.0019
1753.00,-0.0020
1752.00,-0.0020
1751.00,-0.0020
1750.00,-0.0020
1749.00,-0.0020
1748.00,-0.0019
1747.00,-0.0019
1746.00,-0.0019
1745.00,-0.0019
1744.00,-0.0019
1743.00,-0.0019
1742.00,-0.0019
1741.00,-0.0019
1740.00,-0.0019
1739.00,-0.0019
1738.00,-0.0019
1737.00,-0.0019
1736.00,-0.0020
1735.00,-0.0020
1734.00,-0.0020
1733.00,-0.0020
1732.00,-0.0020
1731.00,-0.0019
1730.00,-0.0019
1729.00,-0.0019
1728.00,-0.0019
1727.00,-0.0019
1726.00,-0.0019
1725.00,-0.0019
1724.00,-0.0019
1723.00,-0.0019
1722.00,-0.0019
1721.00,-0.0019
1720.00,-0.0019
1719.00,-0.0019
1718.00,-0.0020
1717.00,-0.0020
1716.00,-0.0020
1715.00,-0.0020
1714.00,-0.0020
1713.00,-0.0019
1712.00,-0.0019
1711.00,-0.0019
1710.00,-0.0019
1709.00,-0.0019
1708.00,-0.0019
1707.00,-0.0019
1706.00,-0.0019
1705.00,-0.0019
1704.00,-0.0019
1703.00,-0.0019
1702.00,-0.0019
1701.00,-0.0019
1700.00,-0.0019
1699.00,-0.0019
1698.00,-0.0020
1697.00,-0.0020
1696.00,-0.0019
1695.00,-0.0019
1694.00,-0.0019
1693.00,-0.0019
1692.00,-0.0019
1691.00,-0.0019
1690.00,-0.0019
1689.00,-0.0019
1688.00,-0.0019
1687.00,-0.0020
1686.00,-0.0020
1685.00,-0.0020
1684.00,-0.0020
1683.00,-0.0019
1682.00,-0.0019
1681.00,-0.0019
1680.00,-0.0020
1679.00,-0.0020
1678.00,-0.0020
1677.00,-0.0020
1676.00,-0.0020
1675.00,-0.0020
1674.00,-0.0020
1673.00,-0.0020
1672.00,-0.0020
1671.00,-0.0020
1670.00,-0.0020
1669.00,-0.0019
1668.00,-0.0019
1667.00,-0.0019
1666.00,-0.0019
1665.00,-0.0019
1664.00,-0.0019
1663.00,-0.0019
1662.00,-0.0019
1661.00,-0.0019
1660.00,-0.0019
1659.00,-0.0020
1658.00,-0.0019
1657.00,-0.0019
1656.00,-0.0019
1655.00,-0.0018
1654.00,-0.0018
1653.00,-0.0018
1652.00,-0.0018
1651.00,-0.0019
1650.00,-0.0019
1649.00,-0.0019
1648.00,-0.0020
1647.00,-0.0020
1646.00,-0.0020
1645.00,-0.0020
1644.00,-0.0020
1643.00,-0.0020
1642.00,-0.0020
1641.00,-0.0020
1640.00,-0.0020
1639.00,-0.0020
1638.00,-0.0020
1637.00,-0.0020
1636.00,-0.0020
1635.00,-0.0020
1634.00,-0.0020
1633.00,-0.0020
1632.00,-0.0020
1631.00,-0.0020
1630.00,-0.0020
1629.00,-0.0020
1628.00,-0.0020
1627.00,-0.0020
1626.00,-0.0020
1625.00,-0.0020
1624.00,-0.0020
1623.00,-0.0020
1622.00,-0.0020
1621.00,-0.0020
1620.00,-0.0020
1619.00,-0.0020
1618.00,-0.0019
1617.00,-0.0019
1616.00,-0.0019
1615.00,-0.0019
1614.00,-0.0019
1613.00,-0.0019
1612.00,-0.0019
1611.00,-0.0019
1610.00,-0.0019
1609.00,-0.0019
1608.00,-0.0019
1607.00,-0.0019
1606.00,-0.0019
1605.00,-0.0019
1604.00,-0.0019
1603.00,-0.0019
1602.00,-0.0019
1601.00,-0.0019
1600.00,-0.0019
1599.00,-0.0019
1598.00,-0.0019
1597.00,-0.0018
1596.00,-0.0018
1595.00,-0.0019
1594.00,-0.0019
1593.00,-0.0019
1592.00,-0.0019
1591.00,-0.0019
1590.00,-0.0019
1589.00,-0.0019
1588.00,-0.0019
1587.00,-0.0019
1586.00,-0.0019
1585.00,-0.0019
1584.00,-0.0019
1583.00,-0.0019
1582.00,-0.0019
1581.00,-0.0019
1580.00,-0.0019
1579.00,-0.0019
1578.00,-0.0019
1577.00,-0.0018
1576.00,-0.0019
1575.00,-0.0019
1574.00,-0.0019
1573.00,-0.0019
1572.00,-0.0019
1571.00,-0.0019
1570.00,-0.0019
1569.00,-0.0019
1568.00,-0.0020
1567.00,-0.0020
1566.00,-0.0020
1565.00,-0.0020
1564.00,-0.0020
1563.00,-0.0019
1562.00,-0.0019
1561.00,-0.0019
1560.00,-0.0020
1559.00,-0.0020
1558.00,-0.0020
1557.00,-0.0020
1556.00,-0.0020
1555.00,-0.0019
1554.00,-0.0020
1553.00,-0.0020
1552.00,-0.0020
1551.00,-0.0020
1550.00,-0.0020
1549.00,-0.0020
1548.00,-0.0020
1547.00,-0.0020
1546.00,-0.0020
1545.00,-0.0020
1544.00,-0.0019
1543.00,-0.0019
1542.00,-0.0019
1541.00,-0.0019
1540.00,-0.0020
1539.00,-0.0020
1538.00,-0.0020
1537.00,-0.0019
1536.00,-0.0019
1535.00,-0.0019
1534.00,-0.0019
1533.00,-0.0019
1532.00,-0.0019
1531.00,-0.0020
1530.00,-0.0020
1529.00,-0.0020
1528.00,-0.0020
1527.00,-0.0020
1526.00,-0.0020
1525.00,-0.0020
1524.00,-0.0020
1523.00,-0.0020
1522.00,-0.0020
1521.00,-0.0020
1520.00,-0.0020
1519.00,-0.0020
1518.00,-0.0020
1517.00,-0.0020
1516.00,-0.0020
1515.00,-0.0020
1514.00,-0.0020
1513.00,-0.0020
1512.00,-0.0020
1511.00,-0.0020
1510.00,-0.0020
1509.00,-0.0020
1508.00,-0.0020
1507.00,-0.0020
1506.00,-0.0020
1505.00,-0.0020
1504.00,-0.0020
1503.00,-0.0020
1502.00,-0.0020
1501.00,-0.0020
1500.00,-0.0020
1499.00,-0.0020
1498.00,-0.0020
1497.00,-0.0020
1496.00,-0.0019
1495.00,-0.0019
1494.00,-0.0019
1493.00,-0.0019
1492.00,-0.0019
1491.00,-0.0019
1490.00,-0.0019
1489.00,-0.0019
1488.00,-0.0019
1487.00,-0.0019
1486.00,-0.0019
1485.00,-0.0019
1484.00,-0.0019
1483.00,-0.0019
1482.00,-0.0019
1481.00,-0.0019
1480.00,-0.0019
1479.00,-0.0019
1478.00,-0.0019
1477.00,-0.0019
1476.00,-0.0020
1475.00,-0.0020
1474.00,-0.0020
1473.00,-0.0020
1472.00,-0.0020
1471.00,-0.0020
1470.00,-0.0020
1469.00,-0.0020
1468.00,-0.0019
1467.00,-0.0019
1466.00,-0.0019
1465.00,-0.0020
1464.00,-0.0020
1463.00,-0.0020
1462.00,-0.0020
1461.00,-0.0020
1460.00,-0.0020
1459.00,-0.0019
1458.00,-0.0019
1457.00,-0.0019
1456.00,-0.0019
1455.00,-0.0019
1454.00,-0.0019
1453.00,-0.0019
1452.00,-0.0019
1451.00,-0.0019
1450.00,-0.0019
1449.00,-0.0019
1448.00,-0.0019
1447.00,-0.0019
1446.00,-0.0019
1445.00,-0.0019
1444.00,-0.0019
1443.00,-0.0018
1442.00,-0.0018
1441.00,-0.0018
1440.00,-0.0018
1439.00,-0.0018
1438.00,-0.0018
1437.00,-0.0018
1436.00,-0.0019
1435.00,-0.0019
1434.00,-0.0019
1433.00,-0.0019
1432.00,-0.0019
1431.00,-0.0019
1430.00,-0.0019
1429.00,-0.0019
1428.00,-0.0019
1427.00,-0.0019
1426.00,-0.0019
1425.00,-0.0019
1424.00,-0.0019
1423.00,-0.0019
1422.00,-0.0019
1421.00,-0.0019
1420.00,-0.0019
1419.00,-0.0019
1418.00,-0.0019
1417.00,-0.0019
1416.00,-0.0019
1415.00,-0.0019
1414.00,-0.0019
1413.00,-0.0019
1412.00,-0.0019
1411.00,-0.0019
1410.00,-0.0019
1409.00,-0.0019
1408.00,-0.0019
1407.00,-0.0019
1406.00,-0.0019
1405.00,-0.0019
1404.00,-0.0019
1403.00,-0.0019
1402.00,-0.0019
1401.00,-0.0019
1400.00,-0.0019
1399.00,-0.0019
1398.00,-0.0019
1397.00,-0.0019
1396.00,-0.0019
1395.00,-0.0019
1394.00,-0.0019
1393.00,-0.0019
1392.00,-0.0019
1391.00,-0.0019
1390.00,-0.0019
1389.00,-0.0019
1388.00,-0.0019
1387.00,-0.0019
1386.00,-0.0019
1385.00,-0.0019
1384.00,-0.0019
1383.00,-0.0019
1382.00,-0.0019
1381.00,-0.0019
1380.00,-0.0019
1379.00,-0.0019
1378.00,-0.0019
1377.00,-0.0019
1376.00,-0.0019
1375.00,-0.0019
1374.00,-0.0019
1373.00,-0.0019
1372.00,-0.0019
1371.00,-0.0019
1370.00,-0.0019
1369.00,-0.0019
1368.00,-0.0019
1367.00,-0.0019
1366.00,-0.0019
1365.00,-0.0019
1364.00,-0.0019
1363.00,-0.0019
1362.00,-0.0019
1361.00,-0.0019
1360.00,-0.0019
1359.00,-0.0019
1358.00,-0.0019
1357.00,-0.0019
1356.00,-0.0019
1355.00,-0.0019
1354.00,-0.0019
1353.00,-0.0019
1352.00,-0.0019
1351.00,-0.0019
1350.00,-0.0019
1349.00,-0.0019
1348.00,-0.0019
1347.00,-0.0019
1346.00,-0.0019
1345.00,-0.0019
1344.00,-0.0019
1343.00,-0.0019
1342.00,-0.0019
1341.00,-0.0018
1340.00,-0.0019
1339.00,-0.0019
1338.00,-0.0019
1337.00,-0.0019
1336.00,-0.0018
1335.00,-0.0018
1334.00,-0.0018
1333.00,-0.0018
1332.00,-0.0018
1331.00,-0.0018
1330.00,-0.0018
1329.00,-0.0018
1328.00,-0.0018
1327.00,-0.0018
1326.00,-0.0018
1325.00,-0.0018
1324.00,-0.0018
1323.00,-0.0018
1322.00,-0.0018
1321.00,-0.0019
1320.00,-0.0019
1319.00,-0.0019
1318.00,-0.0019
1317.00,-0.0019
1316.00,-0.0019
1315.00,-0.0019
1314.00,-0.0019
1313.00,-0.0019
1312.00,-0.0019
1311.00,-0.0019
1310.00,-0.0019
1309.00,-0.0019
1308.00,-0.0019
1307.00,-0.0019
1306.00,-0.0019
1305.00,-0.0019
1304.00,-0.0019
1303.00,-0.0019
1302.00,-0.0019
1301.00,-0.0019
1300.00,-0.0019
1299.00,-0.0019
1298.00,-0.0019
1297.00,-0.0019
1296.00,-0.0019
1295.00,-0.0019
1294.00,-0.0019
1293.00,-0.0019
1292.00,-0.0019
1291.00,-0.0019
1290.00,-0.0019
1289.00,-0.0019
1288.00,-0.0019
1287.00,-0.0019
1286.00,-0.0019
1285.00,-0.0019
1284.00,-0.0019
1283.00,-0.0019
1282.00,-0.0018
1281.00,-0.0018
1280.00,-0.0018
1279.00,-0.0018
1278.00,-0.0018
1277.00,-0.0018
1276.00,-0.0018
1275.00,-0.0018
1274.00,-0.0019
1273.00,-0.0019
1272.00,-0.0019
1271.00,-0.0018
1270.00,-0.0018
1269.00,-0.0018
1268.00,-0.0018
1267.00,-0.0019
1266.00,-0.0019
1265.00,-0.0019
1264.00,-0.0019
1263.00,-0.0019
1262.00,-0.0019
1261.00,-0.0019
1260.00,-0.0019
1259.00,-0.0019
1258.00,-0.0019
1257.00,-0.0019
1256.00,-0.0019
1255.00,-0.0019
1254.00,-0.0019
1253.00,-0.0019
1252.00,-0.0019
1251.00,-0.0019
1250.00,-0.0019
1249.00,-0.0019
1248.00,-0.0019
1247.00,-0.0019
1246.00,-0.0019
1245.00,-0.0019
1244.00,-0.0019
1243.00,-0.0019
1242.00,-0.0019
1241.00,-0.0019
1240.00,-0.0019
1239.00,-0.0019
1238.00,-0.0018
1237.00,-0.0018
1236.00,-0.0018
1235.00,-0.0018
1234.00,-0.0018
1233.00,-0.0018
1232.00,-0.0018
1231.00,-0.0018
1230.00,-0.0018
1229.00,-0.0018
1228.00,-0.0018
1227.00,-0.0018
1226.00,-0.0018
1225.00,-0.0018
1224.00,-0.0018
1223.00,-0.0018
1222.00,-0.0018
1221.00,-0.0018
1220.00,-0.0018
1219.00,-0.0018
1218.00,-0.0018
1217.00,-0.0018
1216.00,-0.0018
1215.00,-0.0018
1214.00,-0.0018
1213.00,-0.0018
1212.00,-0.0018
1211.00,-0.0018
1210.00,-0.0018
1209.00,-0.0018
1208.00,-0.0018
1207.00,-0.0018
1206.00,-0.0018
1205.00,-0.0019
1204.00,-0.0019
1203.00,-0.0019
1202.00,-0.0019
1201.00,-0.0019
1200.00,-0.0019
1199.00,-0.0019
1198.00,-0.0019
1197.00,-0.0019
1196.00,-0.0019
1195.00,-0.0019
1194.00,-0.0019
1193.00,-0.0019
1192.00,-0.0019
1191.00,-0.0019
1190.00,-0.0019
1189.00,-0.0019
1188.00,-0.0019
1187.00,-0.0019
1186.00,-0.0019
1185.00,-0.0019
1184.00,-0.0019
1183.00,-0.0019
1182.00,-0.0019
1181.00,-0.0019
1180.00,-0.0019
1179.00,-0.0019
1178.00,-0.0019
1177.00,-0.0019
1176.00,-0.0019
1175.00,-0.0019
1174.00,-0.0019
1173.00,-0.0019
1172.00,-0.0019
1171.00,-0.0019
1170.00,-0.0019
1169.00,-0.0019
1168.00,-0.0019
1167.00,-0.0019
1166.00,-0.0018
1165.00,-0.0018
1164.00,-0.0019
1163.00,-0.0019
1162.00,-0.0019
1161.00,-0.0019
1160.00,-0.0019
1159.00,-0.0019
1158.00,-0.0019
1157.00,-0.0019
1156.00,-0.0019
1155.00,-0.0019
1154.00,-0.0019
1153.00,-0.0019
1152.00,-0.0019
1151.00,-0.0019
1150.00,-0.0019
1149.00,-0.0019
1148.00,-0.0019
1147.00,-0.0019
1146.00,-0.0019
1145.00,-0.0019
1144.00,-0.0019
1143.00,-0.0019
1142.00,-0.0019
1141.00,-0.0019
1140.00,-0.0019
1139.00,-0.0019
1138.00,-0.0019
1137.00,-0.0019
1136.00,-0.0019
1135.00,-0.0019
1134.00,-0.0019
1133.00,-0.0019
1132.00,-0.0019
1131.00,-0.0019
1130.00,-0.0019
1129.00,-0.0019
1128.00,-0.0019
1127.00,-0.0019
1126.00,-0.0019
1125.00,-0.0019
1124.00,-0.0019
1123.00,-0.0019
1122.00,-0.0019
1121.00,-0.0019
1120.00,-0.0019
1119.00,-0.0019
1118.00,-0.0019
1117.00,-0.0019
1116.00,-0.0019
1115.00,-0.0019
1114.00,-0.0019
1113.00,-0.0019
1112.00,-0.0019
1111.00,-0.0019
1110.00,-0.0019
1109.00,-0.0019
1108.00,-0.0019
1107.00,-0.0019
1106.00,-0.0019
1105.00,-0.0019
1104.00,-0.0019
1103.00,-0.0019
1102.00,-0.0019
1101.00,-0.0019
1100.00,-0.0019
1099.00,-0.0019
1098.00,-0.0019
1097.00,-0.0019
1096.00,-0.0019
1095.00,-0.0019
1094.00,-0.0019
1093.00,-0.0019
1092.00,-0.0019
1091.00,-0.0019
1090.00,-0.0019
1089.00,-0.0019
1088.00,-0.0019
1087.00,-0.0019
1086.00,-0.0019
1085.00,-0.0019
1084.00,-0.0019
1083.00,-0.0019
1082.00,-0.0019
1081.00,-0.0019
1080.00,-0.0019
1079.00,-0.0019
1078.00,-0.0019
1077.00,-0.0019
1076.00,-0.0019
1075.00,-0.0019
1074.00,-0.0019
1073.00,-0.0019
1072.00,-0.0019
1071.00,-0.0019
1070.00,-0.0019
1069.00,-0.0019
1068.00,-0.0019
1067.00,-0.0019
1066.00,-0.0019
1065.00,-0.0019
1064.00,-0.0019
1063.00,-0.0019
1062.00,-0.0019
1061.00,-0.0019
1060.00,-0.0019
1059.00,-0.0019
1058.00,-0.0019
1057.00,-0.0019
1056.00,-0.0019
1055.00,-0.0019
1054.00,-0.0019
1053.00,-0.0019
1052.00,-0.0019
1051.00,-0.0019
1050.00,-0.0019
1049.00,-0.0019
1048.00,-0.0019
1047.00,-0.0019
1046.00,-0.0019
1045.00,-0.0019
1044.00,-0.0019
1043.00,-0.0019
1042.00,-0.0019
1041.00,-0.0019
1040.00,-0.0019
1039.00,-0.0019
1038.00,-0.0019
1037.00,-0.0019
1036.00,-0.0019
1035.00,-0.0019
1034.00,-0.0019
1033.00,-0.0019
1032.00,-0.0019
1031.00,-0.0019
1030.00,-0.0019
1029.00,-0.0019
1028.00,-0.0019
1027.00,-0.0019
1026.00,-0.0019
1025.00,-0.0019
1024.00,-0.0019
1023.00,-0.0019
1022.00,-0.0019
1021.00,-0.0019
1020.00,-0.0019
1019.00,-0.0019
1018.00,-0.0019
1017.00,-0.0019
1016.00,-0.0019
1015.00,-0.0019
1014.00,-0.0019
1013.00,-0.0019
1012.00,-0.0019
1011.00,-0.0019
1010.00,-0.0019
1009.00,-0.0019
1008.00,-0.0019
1007.00,-0.0019
1006.00,-0.0019
1005.00,-0.0019
1004.00,-0.0019
1003.00,-0.0019
1002.00,-0.0019
1001.00,-0.0019
1000.00,-0.0019
999.00,-0.0019
998.00,-0.0019
997.00,-0.0019
996.00,-0.0019
995.00,-0.0019
994.00,-0.0019
993.00,-0.0019
992.00,-0.0019
991.00,-0.0019
990.00,-0.0019
989.00,-0.0019
988.00,-0.0019
987.00,-0.0019
986.00,-0.0019
985.00,-0.0019
984.00,-0.0019
983.00,-0.0019
982.00,-0.0019
981.00,-0.0019
980.00,-0.0019
979.00,-0.0019
978.00,-0.0019
977.00,-0.0019
976.00,-0.0019
975.00,-0.0019
974.00,-0.0019
973.00,-0.0019
972.00,-0.0019
971.00,-0.0019
970.00,-0.0019
969.00,-0.0019
968.00,-0.0019
967.00,-0.0019
966.00,-0.0019
965.00,-0.0019
964.00,-0.0019
963.00,-0.0019
962.00,-0.0019
961.00,-0.0019
960.00,-0.0019
959.00,-0.0019
958.00,-0.0019
957.00,-0.0019
956.00,-0.0019
955.00,-0.0019
954.00,-0.0019
953.00,-0.0019
952.00,-0.0019
951.00,-0.0019
950.00,-0.0019
949.00,-0.0019
948.00,-0.0019
947.00,-0.0019
946.00,-0.0019
945.00,-0.0019
944.00,-0.0019
943.00,-0.0019
942.00,-0.0019
941.00,-0.0019
940.00,-0.0019
939.00,-0.0019
938.00,-0.0019
937.00,-0.0019
936.00,-0.0019
935.00,-0.0019
934.00,-0.0019
933.00,-0.0019
932.00,-0.0019
931.00,-0.0019
930.00,-0.0019
929.00,-0.0019
928.00,-0.0019
927.00,-0.0019
926.00,-0.0019
925.00,-0.0019
924.00,-0.0019
923.00,-0.0019
922.00,-0.0019
921.00,-0.0019
920.00,-0.0019
919.00,-0.0019
918.00,-0.0019
917.00,-0.0019
916.00,-0.0019
915.00,-0.0019
914.00,-0.0019
913.00,-0.0019
912.00,-0.0019
911.00,-0.0019
910.00,-0.0019
909.00,-0.0019
908.00,-0.0019
907.00,-0.0019
906.00,-0.0019
905.00,-0.0019
904.00,-0.0019
903.00,-0.0019
902.00,-0.0019
901.00,-0.0019
900.00,-0.0019
899.00,-0.0019
898.00,-0.0019
897.00,-0.0019
896.00,-0.0019
895.00,-0.0019
894.00,-0.0019
893.00,-0.0019
892.00,-0.0019
891.00,-0.0019
890.00,-0.0019
889.00,-0.0019
888.00,-0.0019
887.00,-0.0019
886.00,-0.0019
885.00,-0.0019
884.00,-0.0019
883.00,-0.0019
882.00,-0.0019
881.00,-0.0019
880.00,-0.0019
879.00,-0.0019
878.00,-0.0019
877.00,-0.0019
876.00,-0.0019
875.00,-0.0019
874.00,-0.0019
873.00,-0.0019
872.00,-0.0019
871.00,-0.0019
870.00,-0.0019
869.00,-0.0019
868.00,-0.0019
867.00,-0.0020
866.00,-0.0019
865.00,-0.0019
864.00,-0.0019
863.00,-0.0019
862.00,-0.0019
861.00,-0.0019
860.00,-0.0019
859.00,-0.0019
858.00,-0.0019
857.00,-0.0019
856.00,-0.0019
855.00,-0.0019
854.00,-0.0019
853.00,-0.0019
852.00,-0.0019
851.00,-0.0019
850.00,-0.0019
849.00,-0.0019
848.00,-0.0018
847.00,-0.0019
846.00,-0.0019
845.00,-0.0019
844.00,-0.0019
843.00,-0.0019
842.00,-0.0019
841.00,-0.0019
840.00,-0.0019
839.00,-0.0019
838.00,-0.0019
837.00,-0.0019
836.00,-0.0019
835.00,-0.0019
834.00,-0.0019
833.00,-0.0019
832.00,-0.0019
831.00,-0.0019
830.00,-0.0019
829.00,-0.0019
828.00,-0.0019
827.00,-0.0019
826.00,-0.0019
825.00,-0.0019
824.00,-0.0019
823.00,-0.0019
822.00,-0.0019
821.00,-0.0019
820.00,-0.0019
819.00,-0.0019
818.00,-0.0019
817.00,-0.0020
816.00,-0.0020
815.00,-0.0020
814.00,-0.0019
813.00,-0.0019
812.00,-0.0019
811.00,-0.0019
810.00,-0.0019
809.00,-0.0019
808.00,-0.0019
807.00,-0.0020
806.00,-0.0020
805.00,-0.0020
804.00,-0.0020
803.00,-0.0020
802.00,-0.0020
801.00,-0.0020
800.00,-0.0020
799.00,-0.0020
798.00,-0.0020
797.00,-0.0019
796.00,-0.0019
795.00,-0.0019
794.00,-0.0019
793.00,-0.0019
792.00,-0.0019
791.00,-0.0019
790.00,-0.0019
789.00,-0.0019
788.00,-0.0019
787.00,-0.0019
786.00,-0.0019
785.00,-0.0019
784.00,-0.0019
783.00,-0.0019
782.00,-0.0019
781.00,-0.0019
780.00,-0.0019
779.00,-0.0019
778.00,-0.0019
777.00,-0.0019
776.00,-0.0019
775.00,-0.0019
774.00,-0.0019
773.00,-0.0019
772.00,-0.0019
771.00,-0.0020
770.00,-0.0020
769.00,-0.0020
768.00,-0.0019
767.00,-0.0019
766.00,-0.0019
765.00,-0.0019
764.00,-0.0019
763.00,-0.0019
762.00,-0.0019
761.00,-0.0019
760.00,-0.0020
759.00,-0.0020
758.00,-0.0020
757.00,-0.0019
756.00,-0.0019
755.00,-0.0019
754.00,-0.0019
753.00,-0.0019
752.00,-0.0019
751.00,-0.0019
750.00,-0.0019
749.00,-0.0019
748.00,-0.0019
747.00,-0.0019
746.00,-0.0019
745.00,-0.0019
744.00,-0.0019
743.00,-0.0019
742.00,-0.0019
741.00,-0.0019
740.00,-0.0019
739.00,-0.0019
738.00,-0.0019
737.00,-0.0019
736.00,-0.0019
735.00,-0.0019
734.00,-0.0019
733.00,-0.0019
732.00,-0.0019
731.00,-0.0019
730.00,-0.0019
729.00,-0.0019
728.00,-0.0019
727.00,-0.0019
726.00,-0.0019
725.00,-0.0019
724.00,-0.0019
723.00,-0.0019
722.00,-0.0019
721.00,-0.0019
720.00,-0.0019
719.00,-0.0019
718.00,-0.0019
717.00,-0.0019
716.00,-0.0019
715.00,-0.0019
714.00,-0.0019
713.00,-0.0019
712.00,-0.0019
711.00,-0.0019
710.00,-0.0019
709.00,-0.0019
708.00,-0.0019
707.00,-0.0019
706.00,-0.0019
705.00,-0.0019
704.00,-0.0019
703.00,-0.0019
702.00,-0.0019
701.00,-0.0019
700.00,-0.0019
699.00,-0.0019
698.00,-0.0019
697.00,-0.0019
696.00,-0.0019
695.00,-0.0019
694.00,-0.0019
693.00,-0.0019
692.00,-0.0019
691.00,-0.0018
690.00,-0.0018
689.00,-0.0018
688.00,-0.0018
687.00,-0.0018
686.00,-0.0018
685.00,-0.0018
684.00,-0.0018
683.00,-0.0018
682.00,-0.0018
681.00,-0.0018
680.00,-0.0018
679.00,-0.0018
678.00,-0.0018
677.00,-0.0018
676.00,-0.0018
675.00,-0.0018
674.00,-0.0018
673.00,-0.0018
672.00,-0.0017
671.00,-0.0015
670.00,-0.0010
669.00,-0.0003
668.00,0.0001
667.00,-0.0002
666.00,-0.0008
665.00,-0.0013
664.00,-0.0017
663.00,-0.0018
662.00,-0.0019
661.00,-0.0018
660.00,-0.0018
659.00,-0.0018
658.00,-0.0017
657.00,-0.0017
656.00,-0.0018
655.00,-0.0018
654.00,-0.0018
653.00,-0.0018
652.00,-0.0018
651.00,-0.0019
650.00,-0.0018
649.00,-0.0018
648.00,-0.0019
647.00,-0.0019
646.00,-0.0019
645.00,-0.0019
644.00,-0.0019
643.00,-0.0019
642.00,-0.0019
641.00,-0.0019
640.00,-0.0019
639.00,-0.0019
638.00,-0.0019
637.00,-0.0019
636.00,-0.0019
635.00,-0.0020
634.00,-0.0020
633.00,-0.0020
632.00,-0.0020
631.00,-0.0020
630.00,-0.0019
629.00,-0.0019
628.00,-0.0020
627.00,-0.0020
626.00,-0.0020
625.00,-0.0020
624.00,-0.0019
623.00,-0.0019
622.00,-0.0019
621.00,-0.0019
620.00,-0.0020
619.00,-0.0020
618.00,-0.0020
617.00,-0.0020
616.00,-0.0019
615.00,-0.0019
614.00,-0.0019
613.00,-0.0019
612.00,-0.0019
611.00,-0.0019
610.00,-0.0019
609.00,-0.0019
608.00,-0.0020
607.00,-0.0019
606.00,-0.0019
605.00,-0.0019
604.00,-0.0019
603.00,-0.0019
602.00,-0.0019
601.00,-0.0020
600.00,-0.0021
599.00,-0.0020
598.00,-0.0019
597.00,-0.0018
596.00,-0.0017
595.00,-0.0017
594.00,-0.0018
593.00,-0.0018
592.00,-0.0019
591.00,-0.0019
590.00,-0.0019
589.00,-0.0019
588.00,-0.0019
587.00,-0.0018
586.00,-0.0018
585.00,-0.0018
584.00,-0.0018
583.00,-0.0019
582.00,-0.0019
581.00,-0.0019
580.00,-0.0019
579.00,-0.0020
578.00,-0.0020
577.00,-0.0020
576.00,-0.0020
575.00,-0.0020
574.00,-0.0019
573.00,-0.0019
572.00,-0.0019
571.00,-0.0019
570.00,-0.0019
569.00,-0.0019
568.00,-0.0020
567.00,-0.0020
566.00,-0.0019
565.00,-0.0019
564.00,-0.0018
563.00,-0.0019
562.00,-0.0019
561.00,-0.0019
560.00,-0.0020
559.00,-0.0020
558.00,-0.0020
557.00,-0.0020
556.00,-0.0020
555.00,-0.0020
554.00,-0.0020
553.00,-0.0019
552.00,-0.0019
551.00,-0.0019
550.00,-0.0018
549.00,-0.0018
548.00,-0.0019
547.00,-0.0019
546.00,-0.0019
545.00,-0.0019
544.00,-0.0019
543.00,-0.0019
542.00,-0.0019
541.00,-0.0019
540.00,-0.0020
539.00,-0.0020
538.00,-0.0020
537.00,-0.0020
536.00,-0.0020
535.00,-0.0020
534.00,-0.0020
533.00,-0.0020
532.00,-0.0020
531.00,-0.0020
530.00,-0.0020
529.00,-0.0020
528.00,-0.0020
527.00,-0.0019
526.00,-0.0020
525.00,-0.0020
524.00,-0.0020
523.00,-0.0020
522.00,-0.0019
521.00,-0.0019
520.00,-0.0019
519.00,-0.0019
518.00,-0.0020
517.00,-0.0020
516.00,-0.0019
515.00,-0.0019
514.00,-0.0018
513.00,-0.0018
512.00,-0.0019
511.00,-0.0019
510.00,-0.0020
509.00,-0.0020
508.00,-0.0020
507.00,-0.0019
506.00,-0.0019
505.00,-0.0020
504.00,-0.0020
503.00,-0.0020
502.00,-0.0020
501.00,-0.0020
500.00,-0.0020
