Created as New Dataset,Sample 041 By Analyst Date Friday, March 28 2025
cm-1,A
4000.00,0.0006
3999.00,0.0006
3998.00,0.0006
3997.00,0.0005
3996.00,0.0005
3995.00,0.0005
3994.00,0.0006
3993.00,0.0006
3992.00,0.0006
3991.00,0.0006
3990.00,0.0006
3989.00,0.0006
3988.00,0.0006
3987.00,0.0006
3986.00,0.0006
3985.00,0.0006
3984.00,0.0006
3983.00,0.0006
3982.00,0.0006
3981.00,0.0006
3980.00,0.0006
3979.00,0.0006
3978.00,0.0006
3977.00,0.0006
3976.00,0.0006
3975.00,0.0006
3974.00,0.0006
3973.00,0.0006
3972.00,0.0006
3971.00,0.0006
3970.00,0.0006
3969.00,0.0006
3968.00,0.0006
3967.00,0.0006
3966.00,0.0006
3965.00,0.0006
3964.00,0.0007
3963.00,0.0007
3962.00,0.0007
3961.00,0.0007
3960.00,0.0006
3959.00,0.0006
3958.00,0.0006
3957.00,0.0006
3956.00,0.0006
3955.00,0.0006
3954.00,0.0006
3953.00,0.0006
3952.00,0.0006
3951.00,0.0006
3950.00,0.0007
3949.00,0.0007
3948.00,0.0007
3947.00,0.0007
3946.00,0.0008
3945.00,0.0007
3944.00,0.0007
3943.00,0.0007
3942.00,0.0007
3941.00,0.0007
3940.00,0.0007
3939.00,0.0007
3938.00,0.0007
3937.00,0.0007
3936.00,0.0007
3935.00,0.0007
3934.00,0.0007
3933.00,0.0008
3932.00,0.0008
3931.00,0.0007
3930.00,0.0007
3929.00,0.0007
3928.00,0.0007
3927.00,0.0007
3926.00,0.0007
3925.00,0.0007
3924.00,0.0007
3923.00,0.0007
3922.00,0.0008
3921.00,0.0008
3920.00,0.0008
3919.00,0.0008
3918.00,0.0008
3917.00,0.0007
3916.00,0.0007
3915.00,0.0007
3914.00,0.0006
3913.00,0.0006
3912.00,0.0006
3911.00,0.0006
3910.00,0.0007
3909.00,0.0007
3908.00,0.0008
3907.00,0.0008
3906.00,0.0009
3905.00,0.0009
3904.00,0.0010
3903.00,0.0010
3902.00,0.0010
3901.00,0.0010
3900.00,0.0009
3899.00,0.0009
3898.00,0.0008
3897.00,0.0008
3896.00,0.0008
3895.00,0.0008
3894.00,0.0008
3893.00,0.0008
3892.00,0.0008
3891.00,0.0008
3890.00,0.0008
3889.00,0.0009
3888.00,0.0009
3887.00,0.0008
3886.00,0.0008
3885.00,0.0008
3884.00,0.0009
3883.00,0.0009
3882.00,0.0009
3881.00,0.0009
3880.00,0.0008
3879.00,0.0009
3878.00,0.0008
3877.00,0.0008
3876.00,0.0008
3875.00,0.0008
3874.00,0.0009
3873.00,0.0009
3872.00,0.0010
3871.00,0.0009
3870.00,0.0009
3869.00,0.0010
3868.00,0.0010
3867.00,0.0009
3866.00,0.0009
3865.00,0.0009
3864.00,0.0009
3863.00,0.0009
3862.00,0.0009
3861.00,0.0009
3860.00,0.0009
3859.00,0.0009
3858.00,0.0009
3857.00,0.0010
3856.00,0.0010
3855.00,0.0010
3854.00,0.0009
3853.00,0.0010
3852.00,0.0011
3851.00,0.0011
3850.00,0.0010
3849.00,0.0009
3848.00,0.0009
3847.00,0.0009
3846.00,0.0009
3845.00,0.0008
3844.00,0.0008
3843.00,0.0009
3842.00,0.0009
3841.00,0.0009
3840.00,0.0009
3839.00,0.0009
3838.00,0.0009
3837.00,0.0010
3836.00,0.0010
3835.00,0.0010
3834.00,0.0009
3833.00,0.0009
3832.00,0.0009
3831.00,0.0009
3830.00,0.0009
3829.00,0.0008
3828.00,0.0008
3827.00,0.0008
3826.00,0.0008
3825.00,0.0009
3824.00,0.0009
3823.00,0.0008
3822.00,0.0008
3821.00,0.0008
3820.00,0.0010
3819.00,0.0010
3818.00,0.0010
3817.00,0.0009
3816.00,0.0009
3815.00,0.0009
3814.00,0.0009
3813.00,0.0009
3812.00,0.0008
3811.00,0.0008
3810.00,0.0008
3809.00,0.0008
3808.00,0.0008
3807.00,0.0008
3806.00,0.0008
3805.00,0.0009
3804.00,0.0009
3803.00,0.0009
3802.00,0.0008
3801.00,0.0009
3800.00,0.0010
3799.00,0.0010
3798.00,0.0009
3797.00,0.0009
3796.00,0.0009
3795.00,0.0009
3794.00,0.0009
3793.00,0.0008
3792.00,0.0008
3791.00,0.0008
3790.00,0.0008
3789.00,0.0008
3788.00,0.0008
3787.00,0.0008
3786.00,0.0008
3785.00,0.0008
3784.00,0.0008
3783.00,0.0008
3782.00,0.0008
3781.00,0.0008
3780.00,0.0008
3779.00,0.0008
3778.00,0.0008
3777.00,0.0008
3776.00,0.0008
3775.00,0.0008
3774.00,0.0008
3773.00,0.0008
3772.00,0.0008
3771.00,0.0008
3770.00,0.0008
3769.00,0.0009
3768.00,0.0009
3767.00,0.0009
3766.00,0.0009
3765.00,0.0009
3764.00,0.0009
3763.00,0.0009
3762.00,0.0009
3761.00,0.0008
3760.00,0.0009
3759.00,0.0009
3758.00,0.0009
3757.00,0.0010
3756.00,0.0010
3755.00,0.0011
3754.00,0.0011
3753.00,0.0011
3752.00,0.0011
3751.00,0.0011
3750.00,0.0011
3749.00,0.0012
3748.00,0.0012
3747.00,0.0013
3746.00,0.0012
3745.00,0.0012
3744.00,0.0012
3743.00,0.0013
3742.00,0.0013
3741.00,0.0012
3740.00,0.0012
3739.00,0.0012
3738.00,0.0013
3737.00,0.0013
3736.00,0.0013
3735.00,0.0012
3734.00,0.0011
3733.00,0.0010
3732.00,0.0010
3731.00,0.0010
3730.00,0.0010
3729.00,0.0011
3728.00,0.0011
3727.00,0.0011
3726.00,0.0011
3725.00,0.0011
3724.00,0.0010
3723.00,0.0010
3722.00,0.0010
3721.00,0.0009
3720.00,0.0009
3719.00,0.0009
3718.00,0.0009
3717.00,0.0009
3716.00,0.0010
3715.00,0.0010
3714.00,0.0010
3713.00,0.0011
3712.00,0.0011
3711.00,0.0011
3710.00,0.0011
3709.00,0.0010
3708.00,0.0010
3707.00,0.0010
3706.00,0.0009
3705.00,0.0009
3704.00,0.0009
3703.00,0.0008
3702.00,0.0008
3701.00,0.0008
3700.00,0.0008
3699.00,0.0009
3698.00,0.0009
3697.00,0.0009
3696.00,0.0009
3695.00,0.0009
3694.00,0.0009
3693.00,0.0009
3692.00,0.0009
3691.00,0.0009
3690.00,0.0009
3689.00,0.0009
3688.00,0.0009
3687.00,0.0010
3686.00,0.0010
3685.00,0.0010
3684.00,0.0009
3683.00,0.0010
3682.00,0.0010
3681.00,0.0010
3680.00,0.0010
3679.00,0.0010
3678.00,0.0011
3677.00,0.0011
3676.00,0.0011
3675.00,0.0011
3674.00,0.0012
3673.00,0.0012
3672.00,0.0012
3671.00,0.0011
3670.00,0.0011
3669.00,0.0011
3668.00,0.0011
3667.00,0.0010
3666.00,0.0010
3665.00,0.0009
3664.00,0.0009
3663.00,0.0009
3662.00,0.0009
3661.00,0.0009
3660.00,0.0009
3659.00,0.0009
3658.00,0.0009
3657.00,0.0009
3656.00,0.0009
3655.00,0.0010
3654.00,0.0011
3653.00,0.0011
3652.00,0.0011
3651.00,0.0012
3650.00,0.0012
3649.00,0.0013
3648.00,0.0013
3647.00,0.0012
3646.00,0.0012
3645.00,0.0011
3644.00,0.0010
3643.00,0.0010
3642.00,0.0009
3641.00,0.0009
3640.00,0.0009
3639.00,0.0009
3638.00,0.0009
3637.00,0.0009
3636.00,0.0009
3635.00,0.0009
3634.00,0.0009
3633.00,0.0010
3632.00,0.0010
3631.00,0.0011
3630.00,0.0011
3629.00,0.0011
3628.00,0.0011
3627.00,0.0010
3626.00,0.0010
3625.00,0.0009
3624.00,0.0009
3623.00,0.0009
3622.00,0.0009
3621.00,0.0009
3620.00,0.0009
3619.00,0.0009
3618.00,0.0010
3617.00,0.0010
3616.00,0.0010
3615.00,0.0011
3614.00,0.0011
3613.00,0.0011
3612.00,0.0011
3611.00,0.0011
3610.00,0.0011
3609.00,0.0011
3608.00,0.0010
3607.00,0.0010
3606.00,0.0009
3605.00,0.0009
3604.00,0.0009
3603.00,0.0009
3602.00,0.0009
3601.00,0.0009
3600.00,0.0009
3599.00,0.0009
3598.00,0.0009
3597.00,0.0009
3596.00,0.0009
3595.00,0.0009
3594.00,0.0009
3593.00,0.0009
3592.00,0.0010
3591.00,0.0010
3590.00,0.0010
3589.00,0.0011
3588.00,0.0011
3587.00,0.0010
3586.00,0.0010
3585.00,0.0009
3584.00,0.0009
3583.00,0.0009
3582.00,0.0009
3581.00,0.0009
3580.00,0.0008
3579.00,0.0008
3578.00,0.0008
3577.00,0.0008
3576.00,0.0007
3575.00,0.0007
3574.00,0.0007
3573.00,0.0008
3572.00,0.0008
3571.00,0.0009
3570.00,0.0010
3569.00,0.0011
3568.00,0.0011
3567.00,0.0011
3566.00,0.0011
3565.00,0.0010
3564.00,0.0010
3563.00,0.0009
3562.00,0.0009
3561.00,0.0009
3560.00,0.0009
3559.00,0.0008
3558.00,0.0008
3557.00,0.0008
3556.00,0.0008
3555.00,0.0008
3554.00,0.0008
3553.00,0.0008
3552.00,0.0008
3551.00,0.0008
3550.00,0.0008
3549.00,0.0009
3548.00,0.0009
3547.00,0.0009
3546.00,0.0009
3545.00,0.0009
3544.00,0.0008
3543.00,0.0008
3542.00,0.0007
3541.00,0.0007
3540.00,0.0007
3539.00,0.0007
3538.00,0.0007
3537.00,0.0007
3536.00,0.0007
3535.00,0.0007
3534.00,0.0007
3533.00,0.0007
3532.00,0.0007
3531.00,0.0008
3530.00,0.0008
3529.00,0.0008
3528.00,0.0008
3527.00,0.0008
3526.00,0.0008
3525.00,0.0008
3524.00,0.0008
3523.00,0.0008
3522.00,0.0007
3521.00,0.0007
3520.00,0.0007
3519.00,0.0007
3518.00,0.0007
3517.00,0.0006
3516.00,0.0006
3515.00,0.0006
3514.00,0.0006
3513.00,0.0007
3512.00,0.0007
3511.00,0.0007
3510.00,0.0007
3509.00,0.0007
3508.00,0.0007
3507.00,0.0007
3506.00,0.0007
3505.00,0.0007
3504.00,0.0007
3503.00,0.0008
3502.00,0.0008
3501.00,0.0007
3500.00,0.0007
3499.00,0.0007
3498.00,0.0007
3497.00,0.0006
3496.00,0.0006
3495.00,0.0006
3494.00,0.0006
3493.00,0.0006
3492.00,0.0006
3491.00,0.0006
3490.00,0.0006
3489.00,0.0006
3488.00,0.0007
3487.00,0.0007
3486.00,0.0006
3485.00,0.0006
3484.00,0.0006
3483.00,0.0006
3482.00,0.0006
3481.00,0.0006
3480.00,0.0006
3479.00,0.0006
3478.00,0.0006
3477.00,0.0006
3476.00,0.0006
3475.00,0.0006
3474.00,0.0006
3473.00,0.0006
3472.00,0.0006
3471.00,0.0006
3470.00,0.0006
3469.00,0.0006
3468.00,0.0005
3467.00,0.0005
3466.00,0.0005
3465.00,0.0005
3464.00,0.0006
3463.00,0.0006
3462.00,0.0006
3461.00,0.0006
3460.00,0.0006
3459.00,0.0006
3458.00,0.0006
3457.00,0.0006
3456.00,0.0006
3455.00,0.0006
3454.00,0.0006
3453.00,0.0006
3452.00,0.0006
3451.00,0.0006
3450.00,0.0006
3449.00,0.0006
3448.00,0.0006
3447.00,0.0006
3446.00,0.0006
3445.00,0.0006
3444.00,0.0006
3443.00,0.0006
3442.00,0.0006
3441.00,0.0006
3440.00,0.0006
3439.00,0.0006
3438.00,0.0006
3437.00,0.0006
3436.00,0.0006
3435.00,0.0006
3434.00,0.0006
3433.00,0.0006
3432.00,0.0006
3431.00,0.0006
3430.00,0.0006
3429.00,0.0005
3428.00,0.0005
3427.00,0.0005
3426.00,0.0005
3425.00,0.0006
3424.00,0.0006
3423.00,0.0006
3422.00,0.0006
3421.00,0.0006
3420.00,0.0006
3419.00,0.0006
3418.00,0.0006
3417.00,0.0006
3416.00,0.0006
3415.00,0.0005
3414.00,0.0005
3413.00,0.0005
3412.00,0.0006
3411.00,0.0006
3410.00,0.0006
3409.00,0.0006
3408.00,0.0006
3407.00,0.0006
3406.00,0.0006
3405.00,0.0006
3404.00,0.0006
3403.00,0.0006
3402.00,0.0006
3401.00,0.0006
3400.00,0.0006
3399.00,0.0006
3398.00,0.0006
3397.00,0.0006
3396.00,0.0006
3395.00,0.0006
3394.00,0.0006
3393.00,0.0006
3392.00,0.0006
3391.00,0.0006
3390.00,0.0006
3389.00,0.0006
3388.00,0.0006
3387.00,0.0006
3386.00,0.0006
3385.00,0.0006
3384.00,0.0006
3383.00,0.0006
3382.00,0.0006
3381.00,0.0006
3380.00,0.0006
3379.00,0.0006
3378.00,0.0006
3377.00,0.0006
3376.00,0.0006
3375.00,0.0006
3374.00,0.0006
3373.00,0.0006
3372.00,0.0006
3371.00,0.0006
3370.00,0.0006
3369.00,0.0006
3368.00,0.0006
3367.00,0.0006
3366.00,0.0006
3365.00,0.0006
3364.00,0.0006
3363.00,0.0006
3362.00,0.0006
3361.00,0.0006
3360.00,0.0006
3359.00,0.0006
3358.00,0.0006
3357.00,0.0006
3356.00,0.0006
3355.00,0.0006
3354.00,0.0006
3353.00,0.0006
3352.00,0.0006
3351.00,0.0006
3350.00,0.0006
3349.00,0.0006
3348.00,0.0006
3347.00,0.0006
3346.00,0.0006
3345.00,0.0006
3344.00,0.0006
3343.00,0.0006
3342.00,0.0006
3341.00,0.0006
3340.00,0.0006
3339.00,0.0006
3338.00,0.0006
3337.00,0.0006
3336.00,0.0006
3335.00,0.0007
3334.00,0.0007
3333.00,0.0007
3332.00,0.0007
3331.00,0.0007
3330.00,0.0007
3329.00,0.0007
3328.00,0.0006
3327.00,0.0006
3326.00,0.0006
3325.00,0.0006
3324.00,0.0006
3323.00,0.0006
3322.00,0.0006
3321.00,0.0006
3320.00,0.0006
3319.00,0.0007
3318.00,0.0007
3317.00,0.0007
3316.00,0.0007
3315.00,0.0007
3314.00,0.0007
3313.00,0.0007
3312.00,0.0007
3311.00,0.0007
3310.00,0.0007
3309.00,0.0007
3308.00,0.0007
3307.00,0.0007
3306.00,0.0007
3305.00,0.0007
3304.00,0.0007
3303.00,0.0007
3302.00,0.0007
3301.00,0.0007
3300.00,0.0007
3299.00,0.0007
3298.00,0.0007
3297.00,0.0007
3296.00,0.0007
3295.00,0.0007
3294.00,0.0007
3293.00,0.0007
3292.00,0.0007
3291.00,0.0007
3290.00,0.0006
3289.00,0.0007
3288.00,0.0007
3287.00,0.0007
3286.00,0.0007
3285.00,0.0007
3284.00,0.0007
3283.00,0.0007
3282.00,0.0007
3281.00,0.0007
3280.00,0.0007
3279.00,0.0008
3278.00,0.0008
3277.00,0.0008
3276.00,0.0008
3275.00,0.0008
3274.00,0.0007
3273.00,0.0007
3272.00,0.0007
3271.00,0.0007
3270.00,0.0007
3269.00,0.0007
3268.00,0.0007
3267.00,0.0007
3266.00,0.0008
3265.00,0.0008
3264.00,0.0007
3263.00,0.0007
3262.00,0.0007
3261.00,0.0007
3260.00,0.0007
3259.00,0.0007
3258.00,0.0007
3257.00,0.0007
3256.00,0.0007
3255.00,0.0007
3254.00,0.0007
3253.00,0.0007
3252.00,0.0007
3251.00,0.0007
3250.00,0.0007
3249.00,0.0008
3248.00,0.0008
3247.00,0.0007
3246.00,0.0007
3245.00,0.0007
3244.00,0.0007
3243.00,0.0007
3242.00,0.0007
3241.00,0.0007
3240.00,0.0007
3239.00,0.0007
3238.00,0.0007
3237.00,0.0007
3236.00,0.0007
3235.00,0.0007
3234.00,0.0007
3233.00,0.0007
3232.00,0.0007
3231.00,0.0007
3230.00,0.0008
3229.00,0.0008
3228.00,0.0008
3227.00,0.0007
3226.00,0.0007
3225.00,0.0007
3224.00,0.0007
3223.00,0.0008
3222.00,0.0008
3221.00,0.0008
3220.00,0.0008
3219.00,0.0008
3218.00,0.0008
3217.00,0.0008
3216.00,0.0008
3215.00,0.0008
3214.00,0.0008
3213.00,0.0008
3212.00,0.0008
3211.00,0.0008
3210.00,0.0008
3209.00,0.0008
3208.00,0.0008
3207.00,0.0008
3206.00,0.0008
3205.00,0.0008
3204.00,0.0008
3203.00,0.0008
3202.00,0.0008
3201.00,0.0008
3200.00,0.0008
3199.00,0.0008
3198.00,0.0008
3197.00,0.0008
3196.00,0.0008
3195.00,0.0008
3194.00,0.0008
3193.00,0.0008
3192.00,0.0008
3191.00,0.0008
3190.00,0.0008
3189.00,0.0008
3188.00,0.0008
3187.00,0.0008
3186.00,0.0008
3185.00,0.0008
3184.00,0.0008
3183.00,0.0008
3182.00,0.0008
3181.00,0.0008
3180.00,0.0008
3179.00,0.0008
3178.00,0.0008
3177.00,0.0008
3176.00,0.0008
3175.00,0.0008
3174.00,0.0008
3173.00,0.0008
3172.00,0.0008
3171.00,0.0008
3170.00,0.0008
3169.00,0.0008
3168.00,0.0008
3167.00,0.0009
3166.00,0.0009
3165.00,0.0009
3164.00,0.0009
3163.00,0.0009
3162.00,0.0008
3161.00,0.0008
3160.00,0.0008
3159.00,0.0008
3158.00,0.0009
3157.00,0.0009
3156.00,0.0009
3155.00,0.0009
3154.00,0.0009
3153.00,0.0009
3152.00,0.0008
3151.00,0.0008
3150.00,0.0008
3149.00,0.0008
3148.00,0.0008
3147.00,0.0008
3146.00,0.0009
3145.00,0.0009
3144.00,0.0009
3143.00,0.0009
3142.00,0.0009
3141.00,0.0009
3140.00,0.0009
3139.00,0.0008
3138.00,0.0008
3137.00,0.0008
3136.00,0.0008
3135.00,0.0008
3134.00,0.0008
3133.00,0.0009
3132.00,0.0009
3131.00,0.0009
3130.00,0.0009
3129.00,0.0009
3128.00,0.0009
3127.00,0.0009
3126.00,0.0009
3125.00,0.0009
3124.00,0.0009
3123.00,0.0009
3122.00,0.0009
3121.00,0.0009
3120.00,0.0009
3119.00,0.0009
3118.00,0.0009
3117.00,0.0009
3116.00,0.0009
3115.00,0.0009
3114.00,0.0009
3113.00,0.0009
3112.00,0.0009
3111.00,0.0009
3110.00,0.0009
3109.00,0.0009
3108.00,0.0009
3107.00,0.0009
3106.00,0.0009
3105.00,0.0009
3104.00,0.0009
3103.00,0.0009
3102.00,0.0009
3101.00,0.0009
3100.00,0.0009
3099.00,0.0009
3098.00,0.0009
3097.00,0.0009
3096.00,0.0009
3095.00,0.0009
3094.00,0.0009
3093.00,0.0009
3092.00,0.0009
3091.00,0.0009
3090.00,0.0009
3089.00,0.0009
3088.00,0.0009
3087.00,0.0009
3086.00,0.0009
3085.00,0.0009
3084.00,0.0009
3083.00,0.0009
3082.00,0.0009
3081.00,0.0009
3080.00,0.0009
3079.00,0.0009
3078.00,0.0009
3077.00,0.0009
3076.00,0.0009
3075.00,0.0009
3074.00,0.0009
3073.00,0.0010
3072.00,0.0009
3071.00,0.0009
3070.00,0.0009
3069.00,0.0009
3068.00,0.0009
3067.00,0.0010
3066.00,0.0010
3065.00,0.0010
3064.00,0.0009
3063.00,0.0009
3062.00,0.0009
3061.00,0.0009
3060.00,0.0010
3059.00,0.0010
3058.00,0.0009
3057.00,0.0009
3056.00,0.0009
3055.00,0.0009
3054.00,0.0009
3053.00,0.0009
3052.00,0.0009
3051.00,0.0009
3050.00,0.0009
3049.00,0.0009
3048.00,0.0009
3047.00,0.0009
3046.00,0.0009
3045.00,0.0009
3044.00,0.0009
3043.00,0.0009
3042.00,0.0009
3041.00,0.0009
3040.00,0.0009
3039.00,0.0009
3038.00,0.0009
3037.00,0.0009
3036.00,0.0010
3035.00,0.0010
3034.00,0.0010
3033.00,0.0010
3032.00,0.0010
3031.00,0.0010
3030.00,0.0010
3029.00,0.0010
3028.00,0.0010
3027.00,0.0010
3026.00,0.0010
3025.00,0.0010
3024.00,0.0010
3023.00,0.0010
3022.00,0.0010
3021.00,0.0010
3020.00,0.0010
3019.00,0.0010
3018.00,0.0009
3017.00,0.0009
3016.00,0.0009
3015.00,0.0009
3014.00,0.0010
3013.00,0.0010
3012.00,0.0010
3011.00,0.0010
3010.00,0.0010
3009.00,0.0010
3008.00,0.0010
3007.00,0.0010
3006.00,0.0010
3005.00,0.0010
3004.00,0.0010
3003.00,0.0010
3002.00,0.0010
3001.00,0.0010
3000.00,0.0010
2999.00,0.0010
2998.00,0.0010
2997.00,0.0010
2996.00,0.0010
2995.00,0.0010
2994.00,0.0010
2993.00,0.0010
2992.00,0.0010
2991.00,0.0010
2990.00,0.0010
2989.00,0.0010
2988.00,0.0010
2987.00,0.0010
2986.00,0.0010
2985.00,0.0011
2984.00,0.0011
2983.00,0.0011
2982.00,0.0011
2981.00,0.0011
2980.00,0.0011
2979.00,0.0011
2978.00,0.0011
2977.00,0.0011
2976.00,0.0011
2975.00,0.0011
2974.00,0.0011
2973.00,0.0011
2972.00,0.0011
2971.00,0.0011
2970.00,0.0011
2969.00,0.0011
2968.00,0.0011
2967.00,0.0011
2966.00,0.0011
2965.00,0.0011
2964.00,0.0011
2963.00,0.0011
2962.00,0.0011
2961.00,0.0011
2960.00,0.0011
2959.00,0.0011
2958.00,0.0011
2957.00,0.0011
2956.00,0.0011
2955.00,0.0011
2954.00,0.0011
2953.00,0.0011
2952.00,0.0010
2951.00,0.0010
2950.00,0.0010
2949.00,0.0010
2948.00,0.0011
2947.00,0.0011
2946.00,0.0011
2945.00,0.0010
2944.00,0.0010
2943.00,0.0010
2942.00,0.0010
2941.00,0.0011
2940.00,0.0011
2939.00,0.0011
2938.00,0.0011
2937.00,0.0011
2936.00,0.0011
2935.00,0.0011
2934.00,0.0011
2933.00,0.0011
2932.00,0.0011
2931.00,0.0011
2930.00,0.0010
2929.00,0.0010
2928.00,0.0010
2927.00,0.0010
2926.00,0.0010
2925.00,0.0010
2924.00,0.0011
2923.00,0.0011
2922.00,0.0010
2921.00,0.0010
2920.00,0.0010
2919.00,0.0010
2918.00,0.0010
2917.00,0.0010
2916.00,0.0010
2915.00,0.0010
2914.00,0.0010
2913.00,0.0010
2912.00,0.0010
2911.00,0.0010
2910.00,0.0010
2909.00,0.0010
2908.00,0.0010
2907.00,0.0010
2906.00,0.0010
2905.00,0.0010
2904.00,0.0010
2903.00,0.0010
2902.00,0.0010
2901.00,0.0010
2900.00,0.0010
2899.00,0.0010
2898.00,0.0010
2897.00,0.0011
2896.00,0.0011
2895.00,0.0011
2894.00,0.0011
2893.00,0.0011
2892.00,0.0011
2891.00,0.0011
2890.00,0.0011
2889.00,0.0011
2888.00,0.0011
2887.00,0.0011
2886.00,0.0010
2885.00,0.0010
2884.00,0.0010
2883.00,0.0010
2882.00,0.0011
2881.00,0.0011
2880.00,0.0011
2879.00,0.0011
2878.00,0.0011
2877.00,0.0011
2876.00,0.0011
2875.00,0.0011
2874.00,0.0011
2873.00,0.0011
2872.00,0.0011
2871.00,0.0011
2870.00,0.0011
2869.00,0.0011
2868.00,0.0011
2867.00,0.0011
2866.00,0.0011
2865.00,0.0010
2864.00,0.0010
2863.00,0.0010
2862.00,0.0010
2861.00,0.0010
2860.00,0.0010
2859.00,0.0010
2858.00,0.0010
2857.00,0.0010
2856.00,0.0010
2855.00,0.0010
2854.00,0.0010
2853.00,0.0010
2852.00,0.0010
2851.00,0.0010
2850.00,0.0010
2849.00,0.0010
2848.00,0.0010
2847.00,0.0010
2846.00,0.0010
2845.00,0.0010
2844.00,0.0010
2843.00,0.0010
2842.00,0.0010
2841.00,0.0010
2840.00,0.0010
2839.00,0.0010
2838.00,0.0010
2837.00,0.0010
2836.00,0.0010
2835.00,0.0010
2834.00,0.0010
2833.00,0.0010
2832.00,0.0010
2831.00,0.0010
2830.00,0.0010
2829.00,0.0010
2828.00,0.0010
2827.00,0.0010
2826.00,0.0010
2825.00,0.0010
2824.00,0.0010
2823.00,0.0010
2822.00,0.0010
2821.00,0.0010
2820.00,0.0010
2819.00,0.0010
2818.00,0.0010
2817.00,0.0010
2816.00,0.0010
2815.00,0.0010
2814.00,0.0010
2813.00,0.0010
2812.00,0.0010
2811.00,0.0010
2810.00,0.0010
2809.00,0.0010
2808.00,0.0010
2807.00,0.0010
2806.00,0.0010
2805.00,0.0010
2804.00,0.0010
2803.00,0.0010
2802.00,0.0010
2801.00,0.0010
2800.00,0.0010
2799.00,0.0010
2798.00,0.0010
2797.00,0.0010
2796.00,0.0010
2795.00,0.0010
2794.00,0.0010
2793.00,0.0010
2792.00,0.0010
2791.00,0.0010
2790.00,0.0010
2789.00,0.0010
2788.00,0.0010
2787.00,0.0010
2786.00,0.0010
2785.00,0.0010
2784.00,0.0010
2783.00,0.0010
2782.00,0.0010
2781.00,0.0010
2780.00,0.0010
2779.00,0.0010
2778.00,0.0010
2777.00,0.0010
2776.00,0.0010
2775.00,0.0010
2774.00,0.0010
2773.00,0.0010
2772.00,0.0010
2771.00,0.0010
2770.00,0.0010
2769.00,0.0010
2768.00,0.0010
2767.00,0.0010
2766.00,0.0010
2765.00,0.0010
2764.00,0.0010
2763.00,0.0010
2762.00,0.0010
2761.00,0.0010
2760.00,0.0010
2759.00,0.0010
2758.00,0.0010
2757.00,0.0010
2756.00,0.0010
2755.00,0.0010
2754.00,0.0010
2753.00,0.0010
2752.00,0.0010
2751.00,0.0010
2750.00,0.0010
2749.00,0.0010
2748.00,0.0010
2747.00,0.0010
2746.00,0.0010
2745.00,0.0010
2744.00,0.0010
2743.00,0.0010
2742.00,0.0010
2741.00,0.0010
2740.00,0.0010
2739.00,0.0010
2738.00,0.0010
2737.00,0.0010
2736.00,0.0010
2735.00,0.0010
2734.00,0.0010
2733.00,0.0010
2732.00,0.0010
2731.00,0.0010
2730.00,0.0010
2729.00,0.0010
2728.00,0.0010
2727.00,0.0010
2726.00,0.0010
2725.00,0.0010
2724.00,0.0010
2723.00,0.0010
2722.00,0.0010
2721.00,0.0010
2720.00,0.0010
2719.00,0.0010
2718.00,0.0010
2717.00,0.0010
2716.00,0.0010
2715.00,0.0010
2714.00,0.0010
2713.00,0.0010
2712.00,0.0010
2711.00,0.0010
2710.00,0.0011
2709.00,0.0011
2708.00,0.0011
2707.00,0.0011
2706.00,0.0010
2705.00,0.0010
2704.00,0.0010
2703.00,0.0010
2702.00,0.0010
2701.00,0.0010
2700.00,0.0010
2699.00,0.0010
2698.00,0.0010
2697.00,0.0010
2696.00,0.0010
2695.00,0.0010
2694.00,0.0010
2693.00,0.0010
2692.00,0.0010
2691.00,0.0010
2690.00,0.0010
2689.00,0.0010
2688.00,0.0010
2687.00,0.0010
2686.00,0.0010
2685.00,0.0010
2684.00,0.0010
2683.00,0.0010
2682.00,0.0010
2681.00,0.0010
2680.00,0.0010
2679.00,0.0010
2678.00,0.0010
2677.00,0.0010
2676.00,0.0010
2675.00,0.0010
2674.00,0.0010
2673.00,0.0010
2672.00,0.0010
2671.00,0.0010
2670.00,0.0011
2669.00,0.0011
2668.00,0.0011
2667.00,0.0011
2666.00,0.0011
2665.00,0.0011
2664.00,0.0011
2663.00,0.0010
2662.00,0.0010
2661.00,0.0010
2660.00,0.0010
2659.00,0.0010
2658.00,0.0010
2657.00,0.0010
2656.00,0.0010
2655.00,0.0010
2654.00,0.0010
2653.00,0.0010
2652.00,0.0010
2651.00,0.0010
2650.00,0.0010
2649.00,0.0011
2648.00,0.0011
2647.00,0.0011
2646.00,0.0011
2645.00,0.0011
2644.00,0.0011
2643.00,0.0011
2642.00,0.0011
2641.00,0.0010
2640.00,0.0010
2639.00,0.0010
2638.00,0.0010
2637.00,0.0010
2636.00,0.0010
2635.00,0.0010
2634.00,0.0011
2633.00,0.0011
2632.00,0.0011
2631.00,0.0010
2630.00,0.0010
2629.00,0.0010
2628.00,0.0010
2627.00,0.0010
2626.00,0.0010
2625.00,0.0010
2624.00,0.0010
2623.00,0.0010
2622.00,0.0010
2621.00,0.0010
2620.00,0.0010
2619.00,0.0010
2618.00,0.0011
2617.00,0.0011
2616.00,0.0010
2615.00,0.0010
2614.00,0.0010
2613.00,0.0010
2612.00,0.0010
2611.00,0.0010
2610.00,0.0010
2609.00,0.0011
2608.00,0.0010
2607.00,0.0010
2606.00,0.0010
2605.00,0.0010
2604.00,0.0010
2603.00,0.0010
2602.00,0.0010
2601.00,0.0010
2600.00,0.0010
2599.00,0.0010
2598.00,0.0010
2597.00,0.0010
2596.00,0.0010
2595.00,0.0011
2594.00,0.0011
2593.00,0.0011
2592.00,0.0011
2591.00,0.0011
2590.00,0.0010
2589.00,0.0010
2588.00,0.0010
2587.00,0.0010
2586.00,0.0010
2585.00,0.0010
2584.00,0.0010
2583.00,0.0010
2582.00,0.0010
2581.00,0.0010
2580.00,0.0010
2579.00,0.0010
2578.00,0.0010
2577.00,0.0010
2576.00,0.0010
2575.00,0.0011
2574.00,0.0010
2573.00,0.0010
2572.00,0.0010
2571.00,0.0010
2570.00,0.0010
2569.00,0.0011
2568.00,0.0011
2567.00,0.0011
2566.00,0.0011
2565.00,0.0011
2564.00,0.0011
2563.00,0.0011
2562.00,0.0010
2561.00,0.0010
2560.00,0.0010
2559.00,0.0010
2558.00,0.0010
2557.00,0.0010
2556.00,0.0010
2555.00,0.0010
2554.00,0.0011
2553.00,0.0011
2552.00,0.0011
2551.00,0.0010
2550.00,0.0010
2549.00,0.0010
2548.00,0.0010
2547.00,0.0011
2546.00,0.0011
2545.00,0.0011
2544.00,0.0011
2543.00,0.0011
2542.00,0.0011
2541.00,0.0011
2540.00,0.0010
2539.00,0.0010
2538.00,0.0010
2537.00,0.0010
2536.00,0.0010
2535.00,0.0011
2534.00,0.0011
2533.00,0.0011
2532.00,0.0011
2531.00,0.0011
2530.00,0.0010
2529.00,0.0010
2528.00,0.0010
2527.00,0.0010
2526.00,0.0011
2525.00,0.0011
2524.00,0.0011
2523.00,0.0011
2522.00,0.0011
2521.00,0.0011
2520.00,0.0010
2519.00,0.0010
2518.00,0.0010
2517.00,0.0010
2516.00,0.0010
2515.00,0.0010
2514.00,0.0010
2513.00,0.0010
2512.00,0.0010
2511.00,0.0010
2510.00,0.0010
2509.00,0.0010
2508.00,0.0010
2507.00,0.0010
2506.00,0.0010
2505.00,0.0010
2504.00,0.0010
2503.00,0.0010
2502.00,0.0010
2501.00,0.0010
2500.00,0.0010
2499.00,0.0010
2498.00,0.0010
2497.00,0.0010
2496.00,0.0010
2495.00,0.0010
2494.00,0.0010
2493.00,0.0010
2492.00,0.0010
2491.00,0.0010
2490.00,0.0010
2489.00,0.0010
2488.00,0.0010
2487.00,0.0010
2486.00,0.0010
2485.00,0.0010
2484.00,0.0010
2483.00,0.0010
2482.00,0.0010
2481.00,0.0010
2480.00,0.0010
2479.00,0.0010
2478.00,0.0010
2477.00,0.0010
2476.00,0.0010
2475.00,0.0010
2474.00,0.0010
2473.00,0.0010
2472.00,0.0010
2471.00,0.0010
2470.00,0.0010
2469.00,0.0010
2468.00,0.0010
2467.00,0.0010
2466.00,0.0010
2465.00,0.0010
2464.00,0.0010
2463.00,0.0010
2462.00,0.0010
2461.00,0.0010
2460.00,0.0010
2459.00,0.0010
2458.00,0.0010
2457.00,0.0010
2456.00,0.0010
2455.00,0.0010
2454.00,0.0010
2453.00,0.0010
2452.00,0.0010
2451.00,0.0010
2450.00,0.0010
2449.00,0.0010
2448.00,0.0010
2447.00,0.0010
2446.00,0.0010
2445.00,0.0010
2444.00,0.0011
2443.00,0.0011
2442.00,0.0011
2441.00,0.0010
2440.00,0.0010
2439.00,0.0010
2438.00,0.0010
2437.00,0.0010
2436.00,0.0010
2435.00,0.0010
2434.00,0.0010
2433.00,0.0010
2432.00,0.0010
2431.00,0.0010
2430.00,0.0011
2429.00,0.0010
2428.00,0.0010
2427.00,0.0010
2426.00,0.0010
2425.00,0.0010
2424.00,0.0010
2423.00,0.0010
2422.00,0.0010
2421.00,0.0010
2420.00,0.0010
2419.00,0.0010
2418.00,0.0010
2417.00,0.0010
2416.00,0.0010
2415.00,0.0010
2414.00,0.0010
2413.00,0.0010
2412.00,0.0010
2411.00,0.0010
2410.00,0.0010
2409.00,0.0010
2408.00,0.0010
2407.00,0.0010
2406.00,0.0010
2405.00,0.0010
2404.00,0.0010
2403.00,0.0010
2402.00,0.0010
2401.00,0.0010
2400.00,0.0010
2399.00,0.0010
2398.00,0.0010
2397.00,0.0010
2396.00,0.0010
2395.00,0.0010
2394.00,0.0010
2393.00,0.0010
2392.00,0.0010
2391.00,0.0010
2390.00,0.0011
2389.00,0.0011
2388.00,0.0011
2387.00,0.0012
2386.00,0.0012
2385.00,0.0013
2384.00,0.0013
2383.00,0.0014
2382.00,0.0014
2381.00,0.0014
2380.00,0.0014
2379.00,0.0013
2378.00,0.0013
2377.00,0.0012
2376.00,0.0012
2375.00,0.0012
2374.00,0.0012
2373.00,0.0013
2372.00,0.0013
2371.00,0.0013
2370.00,0.0014
2369.00,0.0014
2368.00,0.0014
2367.00,0.0015
2366.00,0.0015
2365.00,0.0015
2364.00,0.0015
2363.00,0.0015
2362.00,0.0015
2361.00,0.0015
2360.00,0.0015
2359.00,0.0015
2358.00,0.0015
2357.00,0.0015
2356.00,0.0015
2355.00,0.0015
2354.00,0.0014
2353.00,0.0013
2352.00,0.0012
2351.00,0.0011
2350.00,0.0013
2349.00,0.0016
2348.00,0.0019
2347.00,0.0021
2346.00,0.0020
2345.00,0.0018
2344.00,0.0017
2343.00,0.0017
2342.00,0.0017
2341.00,0.0017
2340.00,0.0016
2339.00,0.0016
2338.00,0.0015
2337.00,0.0015
2336.00,0.0015
2335.00,0.0015
2334.00,0.0016
2333.00,0.0016
2332.00,0.0016
2331.00,0.0015
2330.00,0.0015
2329.00,0.0015
2328.00,0.0015
2327.00,0.0015
2326.00,0.0016
2325.00,0.0016
2324.00,0.0016
2323.00,0.0016
2322.00,0.0016
2321.00,0.0015
2320.00,0.0015
2319.00,0.0015
2318.00,0.0015
2317.00,0.0015
2316.00,0.0015
2315.00,0.0015
2314.00,0.0015
2313.00,0.0014
2312.00,0.0014
2311.00,0.0014
2310.00,0.0014
2309.00,0.0014
2308.00,0.0014
2307.00,0.0014
2306.00,0.0014
2305.00,0.0014
2304.00,0.0013
2303.00,0.0013
2302.00,0.0013
2301.00,0.0013
2300.00,0.0013
2299.00,0.0013
2298.00,0.0013
2297.00,0.0013
2296.00,0.0013
2295.00,0.0012
2294.00,0.0012
2293.00,0.0012
2292.00,0.0012
2291.00,0.0011
2290.00,0.0011
2289.00,0.0011
2288.00,0.0011
2287.00,0.0011
2286.00,0.0011
2285.00,0.0011
2284.00,0.0011
2283.00,0.0011
2282.00,0.0011
2281.00,0.0011
2280.00,0.0011
2279.00,0.0011
2278.00,0.0011
2277.00,0.0011
2276.00,0.0011
2275.00,0.0011
2274.00,0.0010
2273.00,0.0010
2272.00,0.0010
2271.00,0.0010
2270.00,0.0010
2269.00,0.0010
2268.00,0.0011
2267.00,0.0011
2266.00,0.0011
2265.00,0.0011
2264.00,0.0010
2263.00,0.0010
2262.00,0.0010
2261.00,0.0010
2260.00,0.0010
2259.00,0.0010
2258.00,0.0010
2257.00,0.0011
2256.00,0.0011
2255.00,0.0011
2254.00,0.0011
2253.00,0.0011
2252.00,0.0011
2251.00,0.0011
2250.00,0.0011
2249.00,0.0011
2248.00,0.0011
2247.00,0.0011
2246.00,0.0011
2245.00,0.0011
2244.00,0.0011
2243.00,0.0011
2242.00,0.0010
2241.00,0.0010
2240.00,0.0010
2239.00,0.0011
2238.00,0.0011
2237.00,0.0011
2236.00,0.0010
2235.00,0.0010
2234.00,0.0010
2233.00,0.0010
2232.00,0.0010
2231.00,0.0010
2230.00,0.0010
2229.00,0.0010
2228.00,0.0010
2227.00,0.0010
2226.00,0.0010
2225.00,0.0010
2224.00,0.0010
2223.00,0.0010
2222.00,0.0011
2221.00,0.0011
2220.00,0.0010
2219.00,0.0010
2218.00,0.0010
2217.00,0.0010
2216.00,0.0010
2215.00,0.0010
2214.00,0.0010
2213.00,0.0010
2212.00,0.0010
2211.00,0.0010
2210.00,0.0010
2209.00,0.0010
2208.00,0.0010
2207.00,0.0011
2206.00,0.0011
2205.00,0.0011
2204.00,0.0011
2203.00,0.0010
2202.00,0.0010
2201.00,0.0010
2200.00,0.0011
2199.00,0.0010
2198.00,0.0010
2197.00,0.0010
2196.00,0.0010
2195.00,0.0010
2194.00,0.0010
2193.00,0.0010
2192.00,0.0010
2191.00,0.0010
2190.00,0.0010
2189.00,0.0010
2188.00,0.0011
2187.00,0.0011
2186.00,0.0011
2185.00,0.0011
2184.00,0.0010
2183.00,0.0010
2182.00,0.0010
2181.00,0.0010
2180.00,0.0010
2179.00,0.0010
2178.00,0.0010
2177.00,0.0010
2176.00,0.0010
2175.00,0.0010
2174.00,0.0010
2173.00,0.0010
2172.00,0.0010
2171.00,0.0010
2170.00,0.0010
2169.00,0.0011
2168.00,0.0011
2167.00,0.0011
2166.00,0.0011
2165.00,0.0011
2164.00,0.0011
2163.00,0.0011
2162.00,0.0011
2161.00,0.0011
2160.00,0.0011
2159.00,0.0011
2158.00,0.0011
2157.00,0.0011
2156.00,0.0011
2155.00,0.0011
2154.00,0.0010
2153.00,0.0010
2152.00,0.0010
2151.00,0.0010
2150.00,0.0010
2149.00,0.0010
2148.00,0.0010
2147.00,0.0010
2146.00,0.0010
2145.00,0.0010
2144.00,0.0010
2143.00,0.0010
2142.00,0.0010
2141.00,0.0010
2140.00,0.0010
2139.00,0.0010
2138.00,0.0010
2137.00,0.0010
2136.00,0.0011
2135.00,0.0011
2134.00,0.0011
2133.00,0.0011
2132.00,0.0011
2131.00,0.0010
2130.00,0.0010
2129.00,0.0010
2128.00,0.0010
2127.00,0.0010
2126.00,0.0010
2125.00,0.0010
2124.00,0.0010
2123.00,0.0010
2122.00,0.0010
2121.00,0.0010
2120.00,0.0010
2119.00,0.0010
2118.00,0.0010
2117.00,0.0010
2116.00,0.0010
2115.00,0.0010
2114.00,0.0010
2113.00,0.0010
2112.00,0.0010
2111.00,0.0010
2110.00,0.0011
2109.00,0.0011
2108.00,0.0011
2107.00,0.0011
2106.00,0.0011
2105.00,0.0011
2104.00,0.0010
2103.00,0.0010
2102.00,0.0010
2101.00,0.0010
2100.00,0.0010
2099.00,0.0010
2098.00,0.0010
2097.00,0.0011
2096.00,0.0011
2095.00,0.0011
2094.00,0.0010
2093.00,0.0010
2092.00,0.0010
2091.00,0.0010
2090.00,0.0010
2089.00,0.0010
2088.00,0.0011
2087.00,0.0011
2086.00,0.0011
2085.00,0.0010
2084.00,0.0010
2083.00,0.0010
2082.00,0.0010
2081.00,0.0010
2080.00,0.0010
2079.00,0.0010
2078.00,0.0010
2077.00,0.0010
2076.00,0.0010
2075.00,0.0010
2074.00,0.0010
2073.00,0.0010
2072.00,0.0010
2071.00,0.0010
2070.00,0.0010
2069.00,0.0011
2068.00,0.0011
2067.00,0.0010
2066.00,0.0010
2065.00,0.0010
2064.00,0.0010
2063.00,0.0010
2062.00,0.0010
2061.00,0.0010
2060.00,0.0010
2059.00,0.0010
2058.00,0.0010
2057.00,0.0010
2056.00,0.0010
2055.00,0.0010
2054.00,0.0011
2053.00,0.0011
2052.00,0.0011
2051.00,0.0011
2050.00,0.0010
2049.00,0.0010
2048.00,0.0010
2047.00,0.0010
2046.00,0.0010
2045.00,0.0010
2044.00,0.0010
2043.00,0.0010
2042.00,0.0010
2041.00,0.0010
2040.00,0.0010
2039.00,0.0010
2038.00,0.0010
2037.00,0.0010
2036.00,0.0010
2035.00,0.0010
2034.00,0.0010
2033.00,0.0010
2032.00,0.0010
2031.00,0.0011
2030.00,0.0011
2029.00,0.0010
2028.00,0.0010
2027.00,0.0010
2026.00,0.0010
2025.00,0.0011
2024.00,0.0011
2023.00,0.0011
2022.00,0.0010
2021.00,0.0010
2020.00,0.0010
2019.00,0.0010
2018.00,0.0010
2017.00,0.0011
2016.00,0.0011
2015.00,0.0011
2014.00,0.0011
2013.00,0.0011
2012.00,0.0011
2011.00,0.0010
2010.00,0.0010
2009.00,0.0011
2008.00,0.0011
2007.00,0.0011
2006.00,0.0011
2005.00,0.0011
2004.00,0.0011
2003.00,0.0011
2002.00,0.0010
2001.00,0.0010
2000.00,0.0010
1999.00,0.0010
1998.00,0.0010
1997.00,0.0010
1996.00,0.0010
1995.00,0.0010
1994.00,0.0010
1993.00,0.0010
1992.00,0.0010
1991.00,0.0010
1990.00,0.0010
1989.00,0.0010
1988.00,0.0010
1987.00,0.0010
1986.00,0.0010
1985.00,0.0010
1984.00,0.0010
1983.00,0.0010
1982.00,0.0010
1981.00,0.0011
1980.00,0.0011
1979.00,0.0011
1978.00,0.0011
1977.00,0.0011
1976.00,0.0011
1975.00,0.0011
1974.00,0.0011
1973.00,0.0010
1972.00,0.0010
1971.00,0.0010
1970.00,0.0011
1969.00,0.0010
1968.00,0.0010
1967.00,0.0010
1966.00,0.0010
1965.00,0.0010
1964.00,0.0011
1963.00,0.0010
1962.00,0.0010
1961.00,0.0010
1960.00,0.0010
1959.00,0.0010
1958.00,0.0010
1957.00,0.0010
1956.00,0.0010
1955.00,0.0011
1954.00,0.0010
1953.00,0.0010
1952.00,0.0010
1951.00,0.0010
1950.00,0.0011
1949.00,0.0011
1948.00,0.0011
1947.00,0.0011
1946.00,0.0011
1945.00,0.0011
1944.00,0.0011
1943.00,0.0011
1942.00,0.0011
1941.00,0.0010
1940.00,0.0010
1939.00,0.0010
1938.00,0.0010
1937.00,0.0011
1936.00,0.0011
1935.00,0.0011
1934.00,0.0011
1933.00,0.0011
1932.00,0.0011
1931.00,0.0010
1930.00,0.0010
1929.00,0.0010
1928.00,0.0010
1927.00,0.0011
1926.00,0.0011
1925.00,0.0011
1924.00,0.0011
1923.00,0.0011
1922.00,0.0011
1921.00,0.0011
1920.00,0.0011
1919.00,0.0011
1918.00,0.0011
1917.00,0.0011
1916.00,0.0011
1915.00,0.0011
1914.00,0.0011
1913.00,0.0011
1912.00,0.0011
1911.00,0.0010
1910.00,0.0011
1909.00,0.0011
1908.00,0.0011
1907.00,0.0011
1906.00,0.0011
1905.00,0.0011
1904.00,0.0010
1903.00,0.0011
1902.00,0.0011
1901.00,0.0010
1900.00,0.0010
1899.00,0.0010
1898.00,0.0010
1897.00,0.0010
1896.00,0.0010
1895.00,0.0010
1894.00,0.0010
1893.00,0.0010
1892.00,0.0010
1891.00,0.0010
1890.00,0.0010
1889.00,0.0010
1888.00,0.0010
1887.00,0.0010
1886.00,0.0011
1885.00,0.0011
1884.00,0.0011
1883.00,0.0011
1882.00,0.0011
1881.00,0.0011
1880.00,0.0011
1879.00,0.0011
1878.00,0.0010
1877.00,0.0010
1876.00,0.0010
1875.00,0.0010
1874.00,0.0010
1873.00,0.0010
1872.00,0.0011
1871.00,0.0011
1870.00,0.0011
1869.00,0.0011
1868.00,0.0011
1867.00,0.0011
1866.00,0.0011
1865.00,0.0011
1864.00,0.0011
1863.00,0.0011
1862.00,0.0011
1861.00,0.0011
1860.00,0.0011
1859.00,0.0011
1858.00,0.0011
1857.00,0.0011
1856.00,0.0011
1855.00,0.0011
1854.00,0.0011
1853.00,0.0011
1852.00,0.0011
1851.00,0.0011
1850.00,0.0011
1849.00,0.0011
1848.00,0.0011
1847.00,0.0011
1846.00,0.0011
1845.00,0.0011
1844.00,0.0011
1843.00,0.0011
1842.00,0.0011
1841.00,0.0011
1840.00,0.0011
1839.00,0.0011
1838.00,0.0011
1837.00,0.0011
1836.00,0.0011
1835.00,0.0011
1834.00,0.0011
1833.00,0.0011
1832.00,0.0011
1831.00,0.0011
1830.00,0.0011
1829.00,0.0011
1828.00,0.0011
1827.00,0.0011
1826.00,0.0011
1825.00,0.0011
1824.00,0.0011
1823.00,0.0011
1822.00,0.0011
1821.00,0.0011
1820.00,0.0011
1819.00,0.0011
1818.00,0.0011
1817.00,0.0011
1816.00,0.0010
1815.00,0.0010
1814.00,0.0010
1813.00,0.0010
1812.00,0.0010
1811.00,0.0010
1810.00,0.0011
1809.00,0.0011
1808.00,0.0011
1807.00,0.0011
1806.00,0.0011
1805.00,0.0011
1804.00,0.0011
1803.00,0.0011
1802.00,0.0011
1801.00,0.0010
1800.00,0.0010
1799.00,0.0010
1798.00,0.0010
1797.00,0.0011
1796.00,0.0010
1795.00,0.0011
1794.00,0.0011
1793.00,0.0011
1792.00,0.0011
1791.00,0.0011
1790.00,0.0011
1789.00,0.0011
1788.00,0.0011
1787.00,0.0011
1786.00,0.0011
1785.00,0.0010
1784.00,0.0010
1783.00,0.0010
1782.00,0.0011
1781.00,0.0011
1780.00,0.0011
1779.00,0.0011
1778.00,0.0011
1777.00,0.0011
1776.00,0.0011
1775.00,0.0011
1774.00,0.0011
1773.00,0.0011
1772.00,0.0011
1771.00,0.0011
1770.00,0.0011
1769.00,0.0011
1768.00,0.0011
1767.00,0.0011
1766.00,0.0011
1765.00,0.0011
1764.00,0.0011
1763.00,0.0011
1762.00,0.0011
1761.00,0.0011
1760.00,0.0011
1759.00,0.0011
1758.00,0.0011
1757.00,0.0011
1756.00,0.0011
1755.00,0.0011
1754.00,0.0011
1753.00,0.0011
1752.00,0.0011
1751.00,0.0011
1750.00,0.0011
1749.00,0.0011
1748.00,0.0011
1747.00,0.0011
1746.00,0.0011
1745.00,0.0011
1744.00,0.0011
1743.00,0.0011
1742.00,0.0011
1741.00,0.0011
1740.00,0.0011
1739.00,0.0011
1738.00,0.0011
1737.00,0.0011
1736.00,0.0011
1735.00,0.0012
1734.00,0.0011
1733.00,0.0011
1732.00,0.0011
1731.00,0.0011
1730.00,0.0011
1729.00,0.0011
1728.00,0.0011
1727.00,0.0011
1726.00,0.0011
1725.00,0.0011
1724.00,0.0011
1723.00,0.0010
1722.00,0.0010
1721.00,0.0010
1720.00,0.0011
1719.00,0.0011
1718.00,0.0011
1717.00,0.0011
1716.00,0.0011
1715.00,0.0011
1714.00,0.0011
1713.00,0.0011
1712.00,0.0011
1711.00,0.0011
1710.00,0.0011
1709.00,0.0010
1708.00,0.0010
1707.00,0.0011
1706.00,0.0011
1705.00,0.0011
1704.00,0.0010
1703.00,0.0010
1702.00,0.0011
1701.00,0.0011
1700.00,0.0011
1699.00,0.0011
1698.00,0.0011
1697.00,0.0011
1696.00,0.0011
1695.00,0.0011
1694.00,0.0010
1693.00,0.0010
1692.00,0.0010
1691.00,0.0010
1690.00,0.0010
1689.00,0.0010
1688.00,0.0010
1687.00,0.0010
1686.00,0.0010
1685.00,0.0010
1684.00,0.0010
1683.00,0.0010
1682.00,0.0010
1681.00,0.0010
1680.00,0.0010
1679.00,0.0010
1678.00,0.0010
1677.00,0.0010
1676.00,0.0010
1675.00,0.0010
1674.00,0.0010
1673.00,0.0010
1672.00,0.0010
1671.00,0.0010
1670.00,0.0010
1669.00,0.0010
1668.00,0.0010
1667.00,0.0010
1666.00,0.0010
1665.00,0.0010
1664.00,0.0010
1663.00,0.0010
1662.00,0.0010
1661.00,0.0009
1660.00,0.0009
1659.00,0.0009
1658.00,0.0010
1657.00,0.0009
1656.00,0.0009
1655.00,0.0009
1654.00,0.0009
1653.00,0.0009
1652.00,0.0009
1651.00,0.0009
1650.00,0.0010
1649.00,0.0010
1648.00,0.0010
1647.00,0.0010
1646.00,0.0009
1645.00,0.0009
1644.00,0.0009
1643.00,0.0009
1642.00,0.0009
1641.00,0.0009
1640.00,0.0009
1639.00,0.0009
1638.00,0.0009
1637.00,0.0009
1636.00,0.0009
1635.00,0.0009
1634.00,0.0009
1633.00,0.0009
1632.00,0.0009
1631.00,0.0009
1630.00,0.0009
1629.00,0.0009
1628.00,0.0010
1627.00,0.0010
1626.00,0.0010
1625.00,0.0010
1624.00,0.0010
1623.00,0.0010
1622.00,0.0010
1621.00,0.0010
1620.00,0.0010
1619.00,0.0010
1618.00,0.0010
1617.00,0.0010
1616.00,0.0010
1615.00,0.0010
1614.00,0.0010
1613.00,0.0010
1612.00,0.0010
1611.00,0.0010
1610.00,0.0010
1609.00,0.0010
1608.00,0.0010
1607.00,0.0010
1606.00,0.0010
1605.00,0.0010
1604.00,0.0010
1603.00,0.0010
1602.00,0.0010
1601.00,0.0010
1600.00,0.0010
1599.00,0.0010
1598.00,0.0010
1597.00,0.0010
1596.00,0.0010
1595.00,0.0010
1594.00,0.0010
1593.00,0.0010
1592.00,0.0010
1591.00,0.0010
1590.00,0.0010
1589.00,0.0010
1588.00,0.0010
1587.00,0.0010
1586.00,0.0010
1585.00,0.0010
1584.00,0.0010
1583.00,0.0010
1582.00,0.0010
1581.00,0.0010
1580.00,0.0010
1579.00,0.0010
1578.00,0.0010
1577.00,0.0010
1576.00,0.0010
1575.00,0.0010
1574.00,0.0010
1573.00,0.0010
1572.00,0.0010
1571.00,0.0010
1570.00,0.0010
1569.00,0.0010
1568.00,0.0010
1567.00,0.0010
1566.00,0.0010
1565.00,0.0010
1564.00,0.0010
1563.00,0.0010
1562.00,0.0010
1561.00,0.0010
1560.00,0.0010
1559.00,0.0010
1558.00,0.0011
1557.00,0.0011
1556.00,0.0011
1555.00,0.0011
1554.00,0.0011
1553.00,0.0011
1552.00,0.0011
1551.00,0.0011
1550.00,0.0011
1549.00,0.0011
1548.00,0.0011
1547.00,0.0011
1546.00,0.0011
1545.00,0.0011
1544.00,0.0011
1543.00,0.0011
1542.00,0.0011
1541.00,0.0011
1540.00,0.0011
1539.00,0.0011
1538.00,0.0011
1537.00,0.0011
1536.00,0.0011
1535.00,0.0011
1534.00,0.0011
1533.00,0.0011
1532.00,0.0011
1531.00,0.0011
1530.00,0.0011
1529.00,0.0011
1528.00,0.0011
1527.00,0.0011
1526.00,0.0011
1525.00,0.0011
1524.00,0.0011
1523.00,0.0011
1522.00,0.0011
1521.00,0.0011
1520.00,0.0011
1519.00,0.0011
1518.00,0.0011
1517.00,0.0011
1516.00,0.0011
1515.00,0.0011
1514.00,0.0011
1513.00,0.0011
1512.00,0.0011
1511.00,0.0011
1510.00,0.0011
1509.00,0.0011
1508.00,0.0011
1507.00,0.0011
1506.00,0.0011
1505.00,0.0011
1504.00,0.0011
1503.00,0.0011
1502.00,0.0011
1501.00,0.0010
1500.00,0.0010
1499.00,0.0010
1498.00,0.0010
1497.00,0.0011
1496.00,0.0011
1495.00,0.0011
1494.00,0.0011
1493.00,0.0011
1492.00,0.0011
1491.00,0.0011
1490.00,0.0011
1489.00,0.0011
1488.00,0.0011
1487.00,0.0011
1486.00,0.0011
1485.00,0.0011
1484.00,0.0011
1483.00,0.0011
1482.00,0.0011
1481.00,0.0010
1480.00,0.0011
1479.00,0.0011
1478.00,0.0011
1477.00,0.0011
1476.00,0.0011
1475.00,0.0011
1474.00,0.0011
1473.00,0.0011
1472.00,0.0011
1471.00,0.0011
1470.00,0.0011
1469.00,0.0011
1468.00,0.0011
1467.00,0.0011
1466.00,0.0011
1465.00,0.0011
1464.00,0.0011
1463.00,0.0011
1462.00,0.0011
1461.00,0.0011
1460.00,0.0011
1459.00,0.0011
1458.00,0.0011
1457.00,0.0011
1456.00,0.0011
1455.00,0.0011
1454.00,0.0010
1453.00,0.0010
1452.00,0.0010
1451.00,0.0010
1450.00,0.0011
1449.00,0.0011
1448.00,0.0011
1447.00,0.0010
1446.00,0.0010
1445.00,0.0011
1444.00,0.0011
1443.00,0.0011
1442.00,0.0011
1441.00,0.0011
1440.00,0.0011
1439.00,0.0011
1438.00,0.0011
1437.00,0.0011
1436.00,0.0011
1435.00,0.0011
1434.00,0.0011
1433.00,0.0011
1432.00,0.0011
1431.00,0.0011
1430.00,0.0011
1429.00,0.0011
1428.00,0.0011
1427.00,0.0011
1426.00,0.0011
1425.00,0.0011
1424.00,0.0011
1423.00,0.0010
1422.00,0.0010
1421.00,0.0011
1420.00,0.0011
1419.00,0.0011
1418.00,0.0011
1417.00,0.0011
1416.00,0.0011
1415.00,0.0011
1414.00,0.0011
1413.00,0.0011
1412.00,0.0011
1411.00,0.0010
1410.00,0.0010
1409.00,0.0010
1408.00,0.0011
1407.00,0.0011
1406.00,0.0011
1405.00,0.0011
1404.00,0.0011
1403.00,0.0011
1402.00,0.0011
1401.00,0.0011
1400.00,0.0011
1399.00,0.0011
1398.00,0.0011
1397.00,0.0011
1396.00,0.0011
1395.00,0.0011
1394.00,0.0011
1393.00,0.0011
1392.00,0.0011
1391.00,0.0011
1390.00,0.0011
1389.00,0.0011
1388.00,0.0011
1387.00,0.0011
1386.00,0.0011
1385.00,0.0011
1384.00,0.0011
1383.00,0.0011
1382.00,0.0011
1381.00,0.0011
1380.00,0.0011
1379.00,0.0011
1378.00,0.0011
1377.00,0.0011
1376.00,0.0011
1375.00,0.0011
1374.00,0.0011
1373.00,0.0011
1372.00,0.0011
1371.00,0.0011
1370.00,0.0011
1369.00,0.0011
1368.00,0.0011
1367.00,0.0011
1366.00,0.0011
1365.00,0.0011
1364.00,0.0010
1363.00,0.0010
1362.00,0.0010
1361.00,0.0010
1360.00,0.0010
1359.00,0.0010
1358.00,0.0010
1357.00,0.0010
1356.00,0.0010
1355.00,0.0010
1354.00,0.0010
1353.00,0.0010
1352.00,0.0010
1351.00,0.0010
1350.00,0.0010
1349.00,0.0010
1348.00,0.0010
1347.00,0.0010
1346.00,0.0010
1345.00,0.0010
1344.00,0.0010
1343.00,0.0010
1342.00,0.0010
1341.00,0.0010
1340.00,0.0010
1339.00,0.0010
1338.00,0.0010
1337.00,0.0010
1336.00,0.0010
1335.00,0.0010
1334.00,0.0010
1333.00,0.0010
1332.00,0.0010
1331.00,0.0010
1330.00,0.0010
1329.00,0.0010
1328.00,0.0011
1327.00,0.0011
1326.00,0.0011
1325.00,0.0011
1324.00,0.0011
1323.00,0.0011
1322.00,0.0010
1321.00,0.0010
1320.00,0.0010
1319.00,0.0010
1318.00,0.0010
1317.00,0.0010
1316.00,0.0010
1315.00,0.0010
1314.00,0.0010
1313.00,0.0010
1312.00,0.0010
1311.00,0.0010
1310.00,0.0010
1309.00,0.0010
1308.00,0.0010
1307.00,0.0010
1306.00,0.0010
1305.00,0.0010
1304.00,0.0010
1303.00,0.0010
1302.00,0.0010
1301.00,0.0010
1300.00,0.0010
1299.00,0.0010
1298.00,0.0010
1297.00,0.0010
1296.00,0.0010
1295.00,0.0010
1294.00,0.0010
1293.00,0.0010
1292.00,0.0010
1291.00,0.0010
1290.00,0.0010
1289.00,0.0010
1288.00,0.0010
1287.00,0.0010
1286.00,0.0010
1285.00,0.0010
1284.00,0.0010
1283.00,0.0011
1282.00,0.0011
1281.00,0.0011
1280.00,0.0010
1279.00,0.0010
1278.00,0.0010
1277.00,0.0010
1276.00,0.0010
1275.00,0.0010
1274.00,0.0010
1273.00,0.0010
1272.00,0.0010
1271.00,0.0010
1270.00,0.0010
1269.00,0.0010
1268.00,0.0010
1267.00,0.0010
1266.00,0.0010
1265.00,0.0010
1264.00,0.0010
1263.00,0.0010
1262.00,0.0010
1261.00,0.0010
1260.00,0.0010
1259.00,0.0010
1258.00,0.0010
1257.00,0.0010
1256.00,0.0010
1255.00,0.0010
1254.00,0.0010
1253.00,0.0010
1252.00,0.0010
1251.00,0.0010
1250.00,0.0010
1249.00,0.0010
1248.00,0.0011
1247.00,0.0011
1246.00,0.0011
1245.00,0.0011
1244.00,0.0010
1243.00,0.0010
1242.00,0.0010
1241.00,0.0010
1240.00,0.0010
1239.00,0.0010
1238.00,0.0010
1237.00,0.0010
1236.00,0.0010
1235.00,0.0010
1234.00,0.0010
1233.00,0.0010
1232.00,0.0010
1231.00,0.0010
1230.00,0.0011
1229.00,0.0011
1228.00,0.0010
1227.00,0.0010
1226.00,0.0010
1225.00,0.0010
1224.00,0.0011
1223.00,0.0011
1222.00,0.0011
1221.00,0.0011
1220.00,0.0011
1219.00,0.0011
1218.00,0.0010
1217.00,0.0010
1216.00,0.0010
1215.00,0.0010
1214.00,0.0010
1213.00,0.0010
1212.00,0.0011
1211.00,0.0011
1210.00,0.0010
1209.00,0.0010
1208.00,0.0010
1207.00,0.0010
1206.00,0.0010
1205.00,0.0010
1204.00,0.0010
1203.00,0.0010
1202.00,0.0010
1201.00,0.0010
1200.00,0.0010
1199.00,0.0010
1198.00,0.0010
1197.00,0.0010
1196.00,0.0010
1195.00,0.0010
1194.00,0.0010
1193.00,0.0010
1192.00,0.0011
1191.00,0.0011
1190.00,0.0011
1189.00,0.0011
1188.00,0.0010
1187.00,0.0010
1186.00,0.0010
1185.00,0.0010
1184.00,0.0010
1183.00,0.0010
1182.00,0.0010
1181.00,0.0010
1180.00,0.0010
1179.00,0.0010
1178.00,0.0010
1177.00,0.0010
1176.00,0.0010
1175.00,0.0010
1174.00,0.0010
1173.00,0.0010
1172.00,0.0010
1171.00,0.0010
1170.00,0.0010
1169.00,0.0011
1168.00,0.0011
1167.00,0.0010
1166.00,0.0010
1165.00,0.0010
1164.00,0.0010
1163.00,0.0010
1162.00,0.0010
1161.00,0.0010
1160.00,0.0010
1159.00,0.0010
1158.00,0.0010
1157.00,0.0010
1156.00,0.0010
1155.00,0.0010
1154.00,0.0010
1153.00,0.0010
1152.00,0.0010
1151.00,0.0010
1150.00,0.0010
1149.00,0.0010
1148.00,0.0010
1147.00,0.0010
1146.00,0.0010
1145.00,0.0010
1144.00,0.0010
1143.00,0.0010
1142.00,0.0010
1141.00,0.0010
1140.00,0.0010
1139.00,0.0010
1138.00,0.0010
1137.00,0.0010
1136.00,0.0010
1135.00,0.0010
1134.00,0.0010
1133.00,0.0010
1132.00,0.0010
1131.00,0.0010
1130.00,0.0010
1129.00,0.0010
1128.00,0.0010
1127.00,0.0010
1126.00,0.0010
1125.00,0.0010
1124.00,0.0010
1123.00,0.0010
1122.00,0.0010
1121.00,0.0010
1120.00,0.0010
1119.00,0.0010
1118.00,0.0010
1117.00,0.0010
1116.00,0.0010
1115.00,0.0010
1114.00,0.0010
1113.00,0.0010
1112.00,0.0010
1111.00,0.0010
1110.00,0.0010
1109.00,0.0010
1108.00,0.0010
1107.00,0.0010
1106.00,0.0010
1105.00,0.0010
1104.00,0.0010
1103.00,0.0010
1102.00,0.0010
1101.00,0.0010
1100.00,0.0010
1099.00,0.0010
1098.00,0.0009
1097.00,0.0009
1096.00,0.0010
1095.00,0.0010
1094.00,0.0010
1093.00,0.0010
1092.00,0.0010
1091.00,0.0010
1090.00,0.0010
1089.00,0.0010
1088.00,0.0010
1087.00,0.0010
1086.00,0.0010
1085.00,0.0010
1084.00,0.0010
1083.00,0.0010
1082.00,0.0010
1081.00,0.0010
1080.00,0.0009
1079.00,0.0009
1078.00,0.0010
1077.00,0.0010
1076.00,0.0010
1075.00,0.0010
1074.00,0.0010
1073.00,0.0010
1072.00,0.0010
1071.00,0.0010
1070.00,0.0010
1069.00,0.0009
1068.00,0.0009
1067.00,0.0009
1066.00,0.0009
1065.00,0.0010
1064.00,0.0010
1063.00,0.0010
1062.00,0.0010
1061.00,0.0010
1060.00,0.0010
1059.00,0.0011
1058.00,0.0011
1057.00,0.0010
1056.00,0.0010
1055.00,0.0010
1054.00,0.0010
1053.00,0.0010
1052.00,0.0010
1051.00,0.0010
1050.00,0.0010
1049.00,0.0010
1048.00,0.0010
1047.00,0.0010
1046.00,0.0010
1045.00,0.0010
1044.00,0.0010
1043.00,0.0010
1042.00,0.0010
1041.00,0.0011
1040.00,0.0011
1039.00,0.0010
1038.00,0.0010
1037.00,0.0010
1036.00,0.0010
1035.00,0.0011
1034.00,0.0011
1033.00,0.0011
1032.00,0.0011
1031.00,0.0011
1030.00,0.0011
1029.00,0.0011
1028.00,0.0011
1027.00,0.0011
1026.00,0.0011
1025.00,0.0011
1024.00,0.0011
1023.00,0.0011
1022.00,0.0011
1021.00,0.0011
1020.00,0.0011
1019.00,0.0011
1018.00,0.0011
1017.00,0.0011
1016.00,0.0012
1015.00,0.0012
1014.00,0.0012
1013.00,0.0011
1012.00,0.0011
1011.00,0.0011
1010.00,0.0011
1009.00,0.0011
1008.00,0.0011
1007.00,0.0011
1006.00,0.0011
1005.00,0.0011
1004.00,0.0011
1003.00,0.0011
1002.00,0.0011
1001.00,0.0011
1000.00,0.0011
999.00,0.0011
998.00,0.0011
997.00,0.0011
996.00,0.0011
995.00,0.0011
994.00,0.0011
993.00,0.0011
992.00,0.0011
991.00,0.0011
990.00,0.0011
989.00,0.0011
988.00,0.0011
987.00,0.0011
986.00,0.0012
985.00,0.0011
984.00,0.0011
983.00,0.0011
982.00,0.0011
981.00,0.0011
980.00,0.0011
979.00,0.0011
978.00,0.0011
977.00,0.0011
976.00,0.0012
975.00,0.0011
974.00,0.0011
973.00,0.0011
972.00,0.0011
971.00,0.0011
970.00,0.0012
969.00,0.0012
968.00,0.0012
967.00,0.0011
966.00,0.0011
965.00,0.0011
964.00,0.0010
963.00,0.0010
962.00,0.0010
961.00,0.0011
960.00,0.0011
959.00,0.0011
958.00,0.0011
957.00,0.0011
956.00,0.0011
955.00,0.0011
954.00,0.0012
953.00,0.0012
952.00,0.0011
951.00,0.0011
950.00,0.0011
949.00,0.0011
948.00,0.0011
947.00,0.0011
946.00,0.0011
945.00,0.0011
944.00,0.0011
943.00,0.0011
942.00,0.0011
941.00,0.0011
940.00,0.0011
939.00,0.0011
938.00,0.0011
937.00,0.0011
936.00,0.0011
935.00,0.0011
934.00,0.0011
933.00,0.0011
932.00,0.0011
931.00,0.0011
930.00,0.0011
929.00,0.0011
928.00,0.0011
927.00,0.0010
926.00,0.0010
925.00,0.0011
924.00,0.0011
923.00,0.0011
922.00,0.0011
921.00,0.0011
920.00,0.0011
919.00,0.0011
918.00,0.0011
917.00,0.0011
916.00,0.0011
915.00,0.0011
914.00,0.0011
913.00,0.0011
912.00,0.0011
911.00,0.0011
910.00,0.0011
909.00,0.0011
908.00,0.0011
907.00,0.0011
906.00,0.0012
905.00,0.0012
904.00,0.0011
903.00,0.0011
902.00,0.0010
901.00,0.0010
900.00,0.0010
899.00,0.0010
898.00,0.0010
897.00,0.0010
896.00,0.0010
895.00,0.0010
894.00,0.0010
893.00,0.0010
892.00,0.0010
891.00,0.0010
890.00,0.0010
889.00,0.0010
888.00,0.0010
887.00,0.0010
886.00,0.0010
885.00,0.0011
884.00,0.0011
883.00,0.0011
882.00,0.0011
881.00,0.0010
880.00,0.0010
879.00,0.0011
878.00,0.0011
877.00,0.0011
876.00,0.0011
875.00,0.0010
874.00,0.0010
873.00,0.0010
872.00,0.0011
871.00,0.0011
870.00,0.0011
869.00,0.0011
868.00,0.0011
867.00,0.0011
866.00,0.0011
865.00,0.0011
864.00,0.0011
863.00,0.0011
862.00,0.0011
861.00,0.0010
860.00,0.0010
859.00,0.0010
858.00,0.0010
857.00,0.0010
856.00,0.0011
855.00,0.0011
854.00,0.0010
853.00,0.0010
852.00,0.0010
851.00,0.0010
850.00,0.0010
849.00,0.0011
848.00,0.0011
847.00,0.0011
846.00,0.0011
845.00,0.0010
844.00,0.0010
843.00,0.0010
842.00,0.0011
841.00,0.0011
840.00,0.0011
839.00,0.0011
838.00,0.0011
837.00,0.0011
836.00,0.0011
835.00,0.0011
834.00,0.0011
833.00,0.0010
832.00,0.0010
831.00,0.0010
830.00,0.0010
829.00,0.0010
828.00,0.0010
827.00,0.0010
826.00,0.0010
825.00,0.0010
824.00,0.0010
823.00,0.0010
822.00,0.0010
821.00,0.0010
820.00,0.0010
819.00,0.0010
818.00,0.0010
817.00,0.0010
816.00,0.0009
815.00,0.0009
814.00,0.0010
813.00,0.0010
812.00,0.0010
811.00,0.0010
810.00,0.0010
809.00,0.0010
808.00,0.0010
807.00,0.0010
806.00,0.0010
805.00,0.0011
804.00,0.0011
803.00,0.0011
802.00,0.0010
801.00,0.0010
800.00,0.0010
799.00,0.0010
798.00,0.0010
797.00,0.0009
796.00,0.0009
795.00,0.0009
794.00,0.0010
793.00,0.0010
792.00,0.0010
791.00,0.0011
790.00,0.0011
789.00,0.0011
788.00,0.0010
787.00,0.0010
786.00,0.0010
785.00,0.0011
784.00,0.0011
783.00,0.0011
782.00,0.0011
781.00,0.0011
780.00,0.0010
779.00,0.0010
778.00,0.0011
777.00,0.0011
776.00,0.0011
775.00,0.0011
774.00,0.0010
773.00,0.0010
772.00,0.0010
771.00,0.0010
770.00,0.0010
769.00,0.0010
768.00,0.0010
767.00,0.0010
766.00,0.0010
765.00,0.0010
764.00,0.0010
763.00,0.0010
762.00,0.0010
761.00,0.0010
760.00,0.0010
759.00,0.0010
758.00,0.0010
757.00,0.0010
756.00,0.0010
755.00,0.0010
754.00,0.0010
753.00,0.0009
752.00,0.0009
751.00,0.0010
750.00,0.0010
749.00,0.0010
748.00,0.0010
747.00,0.0010
746.00,0.0009
745.00,0.0009
744.00,0.0009
743.00,0.0009
742.00,0.0010
741.00,0.0010
740.00,0.0010
739.00,0.0009
738.00,0.0009
737.00,0.0009
736.00,0.0009
735.00,0.0010
734.00,0.0010
733.00,0.0010
732.00,0.0010
731.00,0.0010
730.00,0.0011
729.00,0.0011
728.00,0.0011
727.00,0.0010
726.00,0.0010
725.00,0.0010
724.00,0.0009
723.00,0.0009
722.00,0.0009
721.00,0.0010
720.00,0.0010
719.00,0.0010
718.00,0.0010
717.00,0.0010
716.00,0.0011
715.00,0.0010
714.00,0.0010
713.00,0.0010
712.00,0.0010
711.00,0.0010
710.00,0.0010
709.00,0.0010
708.00,0.0010
707.00,0.0010
706.00,0.0010
705.00,0.0010
704.00,0.0010
703.00,0.0009
702.00,0.0009
701.00,0.0008
700.00,0.0008
699.00,0.0009
698.00,0.0009
697.00,0.0009
696.00,0.0009
695.00,0.0009
694.00,0.0009
693.00,0.0009
692.00,0.0008
691.00,0.0008
690.00,0.0008
689.00,0.0008
688.00,0.0008
687.00,0.0008
686.00,0.0008
685.00,0.0009
684.00,0.0009
683.00,0.0009
682.00,0.0009
681.00,0.0009
680.00,0.0009
679.00,0.0008
678.00,0.0008
677.00,0.0008
676.00,0.0007
675.00,0.0007
674.00,0.0007
673.00,0.0007
672.00,0.0006
671.00,0.0004
670.00,0.0001
669.00,-0.0006
668.00,-0.0012
667.00,-0.0010
666.00,-0.0004
665.00,0.0001
664.00,0.0005
663.00,0.0008
662.00,0.0009
661.00,0.0009
660.00,0.0008
659.00,0.0007
658.00,0.0007
657.00,0.0006
656.00,0.0007
655.00,0.0007
654.00,0.0007
653.00,0.0007
652.00,0.0008
651.00,0.0007
650.00,0.0007
649.00,0.0007
648.00,0.0007
647.00,0.0008
646.00,0.0008
645.00,0.0009
644.00,0.0009
643.00,0.0009
642.00,0.0008
641.00,0.0008
640.00,0.0008
639.00,0.0009
638.00,0.0009
637.00,0.0009
636.00,0.0009
635.00,0.0008
634.00,0.0008
633.00,0.0008
632.00,0.0009
631.00,0.0009
630.00,0.0010
629.00,0.0010
628.00,0.0009
627.00,0.0008
626.00,0.0007
625.00,0.0007
624.00,0.0007
623.00,0.0007
622.00,0.0007
621.00,0.0007
620.00,0.0008
619.00,0.0008
618.00,0.0008
617.00,0.0008
616.00,0.0008
615.00,0.0007
614.00,0.0007
613.00,0.0007
612.00,0.0007
611.00,0.0008
610.00,0.0008
609.00,0.0008
608.00,0.0009
607.00,0.0008
606.00,0.0008
605.00,0.0008
604.00,0.0008
603.00,0.0008
602.00,0.0009
601.00,0.0009
600.00,0.0009
599.00,0.0009
598.00,0.0008
597.00,0.0008
596.00,0.0008
595.00,0.0008
594.00,0.0008
593.00,0.0007
592.00,0.0005
591.00,0.0004
590.00,0.0005
589.00,0.0006
588.00,0.0008
587.00,0.0008
586.00,0.0008
585.00,0.0007
584.00,0.0007
583.00,0.0008
582.00,0.0008
581.00,0.0008
580.00,0.0008
579.00,0.0008
578.00,0.0008
577.00,0.0007
576.00,0.0007
575.00,0.0007
574.00,0.0007
573.00,0.0008
572.00,0.0008
571.00,0.0007
570.00,0.0006
569.00,0.0005
568.00,0.0004
567.00,0.0005
566.00,0.0005
565.00,0.0006
564.00,0.0007
563.00,0.0008
562.00,0.0009
561.00,0.0008
560.00,0.0007
559.00,0.0006
558.00,0.0005
557.00,0.0006
556.00,0.0007
555.00,0.0009
554.00,0.0009
553.00,0.0009
552.00,0.0009
551.00,0.0009
550.00,0.0009
549.00,0.0009
548.00,0.0009
547.00,0.0008
546.00,0.0007
545.00,0.0007
544.00,0.0006
543.00,0.0007
542.00,0.0008
541.00,0.0009
540.00,0.0010
539.00,0.0009
538.00,0.0007
537.00,0.0006
536.00,0.0006
535.00,0.0007
534.00,0.0008
533.00,0.0009
532.00,0.0009
531.00,0.0009
530.00,0.0008
529.00,0.0008
528.00,0.0009
527.00,0.0009
526.00,0.0009
525.00,0.0009
524.00,0.0009
523.00,0.0008
522.00,0.0008
521.00,0.0008
520.00,0.0008
519.00,0.0008
518.00,0.0008
517.00,0.0009
516.00,0.0008
515.00,0.0007
514.00,0.0007
513.00,0.0006
512.00,0.0006
511.00,0.0007
510.00,0.0006
509.00,0.0005
508.00,0.0005
507.00,0.0005
506.00,0.0005
505.00,0.0005
504.00,0.0005
503.00,0.0006
502.00,0.0007
501.00,0.0007
500.00,0.0008
