Created as New Dataset,Sample 023 By Analyst Date Thursday, March 27 2025
cm-1,A
4000.00,-0.0021
3999.00,-0.0021
3998.00,-0.0021
3997.00,-0.0020
3996.00,-0.0020
3995.00,-0.0020
3994.00,-0.0020
3993.00,-0.0020
3992.00,-0.0020
3991.00,-0.0020
3990.00,-0.0020
3989.00,-0.0020
3988.00,-0.0020
3987.00,-0.0020
3986.00,-0.0020
3985.00,-0.0020
3984.00,-0.0020
3983.00,-0.0020
3982.00,-0.0020
3981.00,-0.0021
3980.00,-0.0021
3979.00,-0.0021
3978.00,-0.0021
3977.00,-0.0020
3976.00,-0.0020
3975.00,-0.0020
3974.00,-0.0020
3973.00,-0.0020
3972.00,-0.0020
3971.00,-0.0020
3970.00,-0.0021
3969.00,-0.0021
3968.00,-0.0021
3967.00,-0.0021
3966.00,-0.0021
3965.00,-0.0021
3964.00,-0.0020
3963.00,-0.0021
3962.00,-0.0021
3961.00,-0.0021
3960.00,-0.0021
3959.00,-0.0021
3958.00,-0.0021
3957.00,-0.0020
3956.00,-0.0020
3955.00,-0.0020
3954.00,-0.0020
3953.00,-0.0021
3952.00,-0.0021
3951.00,-0.0021
3950.00,-0.0021
3949.00,-0.0021
3948.00,-0.0021
3947.00,-0.0020
3946.00,-0.0020
3945.00,-0.0020
3944.00,-0.0020
3943.00,-0.0020
3942.00,-0.0020
3941.00,-0.0020
3940.00,-0.0020
3939.00,-0.0020
3938.00,-0.0020
3937.00,-0.0020
3936.00,-0.0020
3935.00,-0.0020
3934.00,-0.0020
3933.00,-0.0020
3932.00,-0.0020
3931.00,-0.0020
3930.00,-0.0020
3929.00,-0.0020
3928.00,-0.0020
3927.00,-0.0020
3926.00,-0.0020
3925.00,-0.0020
3924.00,-0.0020
3923.00,-0.0020
3922.00,-0.0020
3921.00,-0.0020
3920.00,-0.0020
3919.00,-0.0020
3918.00,-0.0020
3917.00,-0.0020
3916.00,-0.0020
3915.00,-0.0020
3914.00,-0.0020
3913.00,-0.0020
3912.00,-0.0020
3911.00,-0.0020
3910.00,-0.0020
3909.00,-0.0021
3908.00,-0.0021
3907.00,-0.0020
3906.00,-0.0020
3905.00,-0.0020
3904.00,-0.0020
3903.00,-0.0020
3902.00,-0.0020
3901.00,-0.0020
3900.00,-0.0020
3899.00,-0.0020
3898.00,-0.0020
3897.00,-0.0020
3896.00,-0.0020
3895.00,-0.0020
3894.00,-0.0020
3893.00,-0.0020
3892.00,-0.0020
3891.00,-0.0020
3890.00,-0.0020
3889.00,-0.0020
3888.00,-0.0020
3887.00,-0.0020
3886.00,-0.0020
3885.00,-0.0020
3884.00,-0.0020
3883.00,-0.0020
3882.00,-0.0019
3881.00,-0.0019
3880.00,-0.0020
3879.00,-0.0020
3878.00,-0.0020
3877.00,-0.0020
3876.00,-0.0020
3875.00,-0.0019
3874.00,-0.0020
3873.00,-0.0020
3872.00,-0.0020
3871.00,-0.0020
3870.00,-0.0020
3869.00,-0.0020
3868.00,-0.0020
3867.00,-0.0020
3866.00,-0.0019
3865.00,-0.0019
3864.00,-0.0020
3863.00,-0.0020
3862.00,-0.0020
3861.00,-0.0020
3860.00,-0.0020
3859.00,-0.0020
3858.00,-0.0020
3857.00,-0.0019
3856.00,-0.0019
3855.00,-0.0019
3854.00,-0.0019
3853.00,-0.0019
3852.00,-0.0019
3851.00,-0.0019
3850.00,-0.0019
3849.00,-0.0019
3848.00,-0.0019
3847.00,-0.0020
3846.00,-0.0020
3845.00,-0.0020
3844.00,-0.0020
3843.00,-0.0020
3842.00,-0.0020
3841.00,-0.0020
3840.00,-0.0020
3839.00,-0.0019
3838.00,-0.0019
3837.00,-0.0019
3836.00,-0.0019
3835.00,-0.0019
3834.00,-0.0019
3833.00,-0.0019
3832.00,-0.0020
3831.00,-0.0020
3830.00,-0.0020
3829.00,-0.0020
3828.00,-0.0020
3827.00,-0.0020
3826.00,-0.0020
3825.00,-0.0020
3824.00,-0.0020
3823.00,-0.0020
3822.00,-0.0020
3821.00,-0.0020
3820.00,-0.0020
3819.00,-0.0020
3818.00,-0.0020
3817.00,-0.0020
3816.00,-0.0020
3815.00,-0.0020
3814.00,-0.0020
3813.00,-0.0020
3812.00,-0.0020
3811.00,-0.0020
3810.00,-0.0020
3809.00,-0.0020
3808.00,-0.0020
3807.00,-0.0020
3806.00,-0.0020
3805.00,-0.0020
3804.00,-0.0020
3803.00,-0.0020
3802.00,-0.0020
3801.00,-0.0020
3800.00,-0.0020
3799.00,-0.0020
3798.00,-0.0020
3797.00,-0.0020
3796.00,-0.0020
3795.00,-0.0020
3794.00,-0.0020
3793.00,-0.0020
3792.00,-0.0020
3791.00,-0.0020
3790.00,-0.0020
3789.00,-0.0020
3788.00,-0.0020
3787.00,-0.0020
3786.00,-0.0020
3785.00,-0.0020
3784.00,-0.0020
3783.00,-0.0020
3782.00,-0.0020
3781.00,-0.0020
3780.00,-0.0020
3779.00,-0.0020
3778.00,-0.0020
3777.00,-0.0020
3776.00,-0.0020
3775.00,-0.0020
3774.00,-0.0020
3773.00,-0.0020
3772.00,-0.0020
3771.00,-0.0020
3770.00,-0.0020
3769.00,-0.0020
3768.00,-0.0020
3767.00,-0.0020
3766.00,-0.0020
3765.00,-0.0020
3764.00,-0.0020
3763.00,-0.0020
3762.00,-0.0020
3761.00,-0.0020
3760.00,-0.0020
3759.00,-0.0020
3758.00,-0.0020
3757.00,-0.0020
3756.00,-0.0020
3755.00,-0.0020
3754.00,-0.0020
3753.00,-0.0020
3752.00,-0.0020
3751.00,-0.0020
3750.00,-0.0020
3749.00,-0.0020
3748.00,-0.0019
3747.00,-0.0019
3746.00,-0.0019
3745.00,-0.0019
3744.00,-0.0019
3743.00,-0.0019
3742.00,-0.0019
3741.00,-0.0019
3740.00,-0.0019
3739.00,-0.0019
3738.00,-0.0020
3737.00,-0.0020
3736.00,-0.0019
3735.00,-0.0019
3734.00,-0.0019
3733.00,-0.0018
3732.00,-0.0018
3731.00,-0.0018
3730.00,-0.0019
3729.00,-0.0019
3728.00,-0.0019
3727.00,-0.0020
3726.00,-0.0020
3725.00,-0.0020
3724.00,-0.0020
3723.00,-0.0020
3722.00,-0.0020
3721.00,-0.0019
3720.00,-0.0019
3719.00,-0.0019
3718.00,-0.0020
3717.00,-0.0020
3716.00,-0.0020
3715.00,-0.0020
3714.00,-0.0020
3713.00,-0.0020
3712.00,-0.0020
3711.00,-0.0020
3710.00,-0.0020
3709.00,-0.0020
3708.00,-0.0020
3707.00,-0.0020
3706.00,-0.0020
3705.00,-0.0020
3704.00,-0.0020
3703.00,-0.0020
3702.00,-0.0020
3701.00,-0.0020
3700.00,-0.0020
3699.00,-0.0020
3698.00,-0.0020
3697.00,-0.0020
3696.00,-0.0020
3695.00,-0.0020
3694.00,-0.0020
3693.00,-0.0020
3692.00,-0.0020
3691.00,-0.0020
3690.00,-0.0019
3689.00,-0.0019
3688.00,-0.0019
3687.00,-0.0019
3686.00,-0.0019
3685.00,-0.0019
3684.00,-0.0020
3683.00,-0.0020
3682.00,-0.0020
3681.00,-0.0020
3680.00,-0.0020
3679.00,-0.0020
3678.00,-0.0020
3677.00,-0.0020
3676.00,-0.0020
3675.00,-0.0019
3674.00,-0.0019
3673.00,-0.0019
3672.00,-0.0019
3671.00,-0.0019
3670.00,-0.0019
3669.00,-0.0019
3668.00,-0.0019
3667.00,-0.0019
3666.00,-0.0019
3665.00,-0.0019
3664.00,-0.0019
3663.00,-0.0019
3662.00,-0.0020
3661.00,-0.0020
3660.00,-0.0020
3659.00,-0.0020
3658.00,-0.0020
3657.00,-0.0020
3656.00,-0.0020
3655.00,-0.0020
3654.00,-0.0020
3653.00,-0.0020
3652.00,-0.0020
3651.00,-0.0020
3650.00,-0.0020
3649.00,-0.0019
3648.00,-0.0019
3647.00,-0.0019
3646.00,-0.0019
3645.00,-0.0019
3644.00,-0.0019
3643.00,-0.0020
3642.00,-0.0020
3641.00,-0.0020
3640.00,-0.0020
3639.00,-0.0020
3638.00,-0.0020
3637.00,-0.0020
3636.00,-0.0020
3635.00,-0.0020
3634.00,-0.0020
3633.00,-0.0020
3632.00,-0.0020
3631.00,-0.0020
3630.00,-0.0019
3629.00,-0.0019
3628.00,-0.0019
3627.00,-0.0019
3626.00,-0.0019
3625.00,-0.0019
3624.00,-0.0019
3623.00,-0.0019
3622.00,-0.0019
3621.00,-0.0019
3620.00,-0.0019
3619.00,-0.0019
3618.00,-0.0019
3617.00,-0.0019
3616.00,-0.0019
3615.00,-0.0020
3614.00,-0.0020
3613.00,-0.0020
3612.00,-0.0020
3611.00,-0.0020
3610.00,-0.0020
3609.00,-0.0020
3608.00,-0.0020
3607.00,-0.0020
3606.00,-0.0020
3605.00,-0.0020
3604.00,-0.0020
3603.00,-0.0020
3602.00,-0.0020
3601.00,-0.0020
3600.00,-0.0020
3599.00,-0.0020
3598.00,-0.0020
3597.00,-0.0020
3596.00,-0.0020
3595.00,-0.0020
3594.00,-0.0020
3593.00,-0.0020
3592.00,-0.0020
3591.00,-0.0020
3590.00,-0.0020
3589.00,-0.0020
3588.00,-0.0020
3587.00,-0.0020
3586.00,-0.0020
3585.00,-0.0020
3584.00,-0.0020
3583.00,-0.0020
3582.00,-0.0020
3581.00,-0.0020
3580.00,-0.0020
3579.00,-0.0020
3578.00,-0.0020
3577.00,-0.0020
3576.00,-0.0020
3575.00,-0.0020
3574.00,-0.0020
3573.00,-0.0020
3572.00,-0.0020
3571.00,-0.0020
3570.00,-0.0020
3569.00,-0.0020
3568.00,-0.0020
3567.00,-0.0020
3566.00,-0.0020
3565.00,-0.0020
3564.00,-0.0020
3563.00,-0.0020
3562.00,-0.0020
3561.00,-0.0020
3560.00,-0.0020
3559.00,-0.0020
3558.00,-0.0020
3557.00,-0.0020
3556.00,-0.0020
3555.00,-0.0020
3554.00,-0.0020
3553.00,-0.0020
3552.00,-0.0020
3551.00,-0.0020
3550.00,-0.0020
3549.00,-0.0020
3548.00,-0.0020
3547.00,-0.0020
3546.00,-0.0020
3545.00,-0.0020
3544.00,-0.0020
3543.00,-0.0020
3542.00,-0.0020
3541.00,-0.0020
3540.00,-0.0020
3539.00,-0.0020
3538.00,-0.0020
3537.00,-0.0020
3536.00,-0.0021
3535.00,-0.0021
3534.00,-0.0021
3533.00,-0.0020
3532.00,-0.0020
3531.00,-0.0020
3530.00,-0.0020
3529.00,-0.0020
3528.00,-0.0020
3527.00,-0.0020
3526.00,-0.0020
3525.00,-0.0020
3524.00,-0.0020
3523.00,-0.0020
3522.00,-0.0020
3521.00,-0.0020
3520.00,-0.0020
3519.00,-0.0020
3518.00,-0.0020
3517.00,-0.0020
3516.00,-0.0020
3515.00,-0.0020
3514.00,-0.0020
3513.00,-0.0020
3512.00,-0.0020
3511.00,-0.0020
3510.00,-0.0020
3509.00,-0.0020
3508.00,-0.0020
3507.00,-0.0020
3506.00,-0.0020
3505.00,-0.0020
3504.00,-0.0020
3503.00,-0.0020
3502.00,-0.0020
3501.00,-0.0020
3500.00,-0.0020
3499.00,-0.0020
3498.00,-0.0020
3497.00,-0.0020
3496.00,-0.0020
3495.00,-0.0020
3494.00,-0.0020
3493.00,-0.0020
3492.00,-0.0020
3491.00,-0.0020
3490.00,-0.0021
3489.00,-0.0021
3488.00,-0.0021
3487.00,-0.0021
3486.00,-0.0021
3485.00,-0.0021
3484.00,-0.0021
3483.00,-0.0021
3482.00,-0.0021
3481.00,-0.0021
3480.00,-0.0021
3479.00,-0.0021
3478.00,-0.0021
3477.00,-0.0021
3476.00,-0.0021
3475.00,-0.0021
3474.00,-0.0020
3473.00,-0.0020
3472.00,-0.0020
3471.00,-0.0020
3470.00,-0.0020
3469.00,-0.0021
3468.00,-0.0021
3467.00,-0.0021
3466.00,-0.0020
3465.00,-0.0020
3464.00,-0.0020
3463.00,-0.0020
3462.00,-0.0020
3461.00,-0.0020
3460.00,-0.0020
3459.00,-0.0020
3458.00,-0.0020
3457.00,-0.0020
3456.00,-0.0020
3455.00,-0.0020
3454.00,-0.0020
3453.00,-0.0020
3452.00,-0.0020
3451.00,-0.0020
3450.00,-0.0020
3449.00,-0.0020
3448.00,-0.0020
3447.00,-0.0020
3446.00,-0.0020
3445.00,-0.0020
3444.00,-0.0020
3443.00,-0.0020
3442.00,-0.0021
3441.00,-0.0021
3440.00,-0.0021
3439.00,-0.0021
3438.00,-0.0021
3437.00,-0.0021
3436.00,-0.0021
3435.00,-0.0021
3434.00,-0.0021
3433.00,-0.0021
3432.00,-0.0021
3431.00,-0.0021
3430.00,-0.0021
3429.00,-0.0021
3428.00,-0.0021
3427.00,-0.0021
3426.00,-0.0021
3425.00,-0.0021
3424.00,-0.0020
3423.00,-0.0020
3422.00,-0.0020
3421.00,-0.0020
3420.00,-0.0020
3419.00,-0.0020
3418.00,-0.0020
3417.00,-0.0020
3416.00,-0.0020
3415.00,-0.0020
3414.00,-0.0020
3413.00,-0.0020
3412.00,-0.0020
3411.00,-0.0020
3410.00,-0.0020
3409.00,-0.0020
3408.00,-0.0020
3407.00,-0.0020
3406.00,-0.0020
3405.00,-0.0020
3404.00,-0.0020
3403.00,-0.0020
3402.00,-0.0020
3401.00,-0.0020
3400.00,-0.0020
3399.00,-0.0020
3398.00,-0.0020
3397.00,-0.0020
3396.00,-0.0020
3395.00,-0.0020
3394.00,-0.0020
3393.00,-0.0020
3392.00,-0.0020
3391.00,-0.0020
3390.00,-0.0020
3389.00,-0.0020
3388.00,-0.0020
3387.00,-0.0020
3386.00,-0.0020
3385.00,-0.0020
3384.00,-0.0020
3383.00,-0.0020
3382.00,-0.0020
3381.00,-0.0020
3380.00,-0.0020
3379.00,-0.0020
3378.00,-0.0020
3377.00,-0.0020
3376.00,-0.0020
3375.00,-0.0020
3374.00,-0.0020
3373.00,-0.0020
3372.00,-0.0020
3371.00,-0.0020
3370.00,-0.0020
3369.00,-0.0020
3368.00,-0.0020
3367.00,-0.0020
3366.00,-0.0020
3365.00,-0.0020
3364.00,-0.0020
3363.00,-0.0020
3362.00,-0.0020
3361.00,-0.0020
3360.00,-0.0020
3359.00,-0.0020
3358.00,-0.0020
3357.00,-0.0020
3356.00,-0.0020
3355.00,-0.0020
3354.00,-0.0020
3353.00,-0.0020
3352.00,-0.0020
3351.00,-0.0020
3350.00,-0.0020
3349.00,-0.0020
3348.00,-0.0020
3347.00,-0.0020
3346.00,-0.0020
3345.00,-0.0020
3344.00,-0.0020
3343.00,-0.0020
3342.00,-0.0020
3341.00,-0.0020
3340.00,-0.0020
3339.00,-0.0020
3338.00,-0.0020
3337.00,-0.0020
3336.00,-0.0020
3335.00,-0.0020
3334.00,-0.0020
3333.00,-0.0020
3332.00,-0.0020
3331.00,-0.0020
3330.00,-0.0020
3329.00,-0.0020
3328.00,-0.0020
3327.00,-0.0020
3326.00,-0.0020
3325.00,-0.0020
3324.00,-0.0020
3323.00,-0.0020
3322.00,-0.0020
3321.00,-0.0020
3320.00,-0.0020
3319.00,-0.0020
3318.00,-0.0020
3317.00,-0.0020
3316.00,-0.0020
3315.00,-0.0020
3314.00,-0.0020
3313.00,-0.0020
3312.00,-0.0020
3311.00,-0.0020
3310.00,-0.0020
3309.00,-0.0020
3308.00,-0.0020
3307.00,-0.0020
3306.00,-0.0020
3305.00,-0.0020
3304.00,-0.0020
3303.00,-0.0020
3302.00,-0.0020
3301.00,-0.0020
3300.00,-0.0020
3299.00,-0.0020
3298.00,-0.0020
3297.00,-0.0020
3296.00,-0.0020
3295.00,-0.0020
3294.00,-0.0020
3293.00,-0.0020
3292.00,-0.0020
3291.00,-0.0020
3290.00,-0.0020
3289.00,-0.0020
3288.00,-0.0020
3287.00,-0.0020
3286.00,-0.0020
3285.00,-0.0020
3284.00,-0.0020
3283.00,-0.0020
3282.00,-0.0020
3281.00,-0.0020
3280.00,-0.0020
3279.00,-0.0020
3278.00,-0.0020
3277.00,-0.0020
3276.00,-0.0020
3275.00,-0.0020
3274.00,-0.0020
3273.00,-0.0020
3272.00,-0.0020
3271.00,-0.0020
3270.00,-0.0020
3269.00,-0.0020
3268.00,-0.0020
3267.00,-0.0020
3266.00,-0.0020
3265.00,-0.0020
3264.00,-0.0020
3263.00,-0.0020
3262.00,-0.0020
3261.00,-0.0020
3260.00,-0.0020
3259.00,-0.0020
3258.00,-0.0020
3257.00,-0.0020
3256.00,-0.0020
3255.00,-0.0020
3254.00,-0.0020
3253.00,-0.0020
3252.00,-0.0020
3251.00,-0.0020
3250.00,-0.0020
3249.00,-0.0020
3248.00,-0.0020
3247.00,-0.0020
3246.00,-0.0020
3245.00,-0.0020
3244.00,-0.0020
3243.00,-0.0020
3242.00,-0.0020
3241.00,-0.0020
3240.00,-0.0020
3239.00,-0.0020
3238.00,-0.0020
3237.00,-0.0020
3236.00,-0.0020
3235.00,-0.0020
3234.00,-0.0020
3233.00,-0.0020
3232.00,-0.0020
3231.00,-0.0020
3230.00,-0.0020
3229.00,-0.0020
3228.00,-0.0020
3227.00,-0.0020
3226.00,-0.0020
3225.00,-0.0020
3224.00,-0.0020
3223.00,-0.0020
3222.00,-0.0020
3221.00,-0.0020
3220.00,-0.0020
3219.00,-0.0020
3218.00,-0.0020
3217.00,-0.0020
3216.00,-0.0020
3215.00,-0.0020
3214.00,-0.0020
3213.00,-0.0020
3212.00,-0.0020
3211.00,-0.0020
3210.00,-0.0020
3209.00,-0.0020
3208.00,-0.0020
3207.00,-0.0020
3206.00,-0.0020
3205.00,-0.0020
3204.00,-0.0020
3203.00,-0.0020
3202.00,-0.0020
3201.00,-0.0020
3200.00,-0.0020
3199.00,-0.0020
3198.00,-0.0020
3197.00,-0.0020
3196.00,-0.0020
3195.00,-0.0020
3194.00,-0.0020
3193.00,-0.0020
3192.00,-0.0020
3191.00,-0.0020
3190.00,-0.0020
3189.00,-0.0020
3188.00,-0.0020
3187.00,-0.0020
3186.00,-0.0020
3185.00,-0.0020
3184.00,-0.0020
3183.00,-0.0020
3182.00,-0.0020
3181.00,-0.0020
3180.00,-0.0020
3179.00,-0.0020
3178.00,-0.0020
3177.00,-0.0020
3176.00,-0.0020
3175.00,-0.0020
3174.00,-0.0020
3173.00,-0.0020
3172.00,-0.0020
3171.00,-0.0020
3170.00,-0.0020
3169.00,-0.0020
3168.00,-0.0020
3167.00,-0.0020
3166.00,-0.0020
3165.00,-0.0020
3164.00,-0.0020
3163.00,-0.0020
3162.00,-0.0020
3161.00,-0.0020
3160.00,-0.0020
3159.00,-0.0020
3158.00,-0.0020
3157.00,-0.0020
3156.00,-0.0020
3155.00,-0.0020
3154.00,-0.0020
3153.00,-0.0020
3152.00,-0.0020
3151.00,-0.0020
3150.00,-0.0020
3149.00,-0.0020
3148.00,-0.0020
3147.00,-0.0020
3146.00,-0.0020
3145.00,-0.0020
3144.00,-0.0020
3143.00,-0.0020
3142.00,-0.0020
3141.00,-0.0020
3140.00,-0.0020
3139.00,-0.0020
3138.00,-0.0020
3137.00,-0.0020
3136.00,-0.0020
3135.00,-0.0020
3134.00,-0.0020
3133.00,-0.0020
3132.00,-0.0020
3131.00,-0.0020
3130.00,-0.0020
3129.00,-0.0020
3128.00,-0.0020
3127.00,-0.0020
3126.00,-0.0020
3125.00,-0.0020
3124.00,-0.0020
3123.00,-0.0020
3122.00,-0.0020
3121.00,-0.0020
3120.00,-0.0020
3119.00,-0.0020
3118.00,-0.0020
3117.00,-0.0020
3116.00,-0.0020
3115.00,-0.0020
3114.00,-0.0020
3113.00,-0.0020
3112.00,-0.0020
3111.00,-0.0020
3110.00,-0.0020
3109.00,-0.0020
3108.00,-0.0020
3107.00,-0.0020
3106.00,-0.0020
3105.00,-0.0020
3104.00,-0.0020
3103.00,-0.0020
3102.00,-0.0020
3101.00,-0.0020
3100.00,-0.0020
3099.00,-0.0020
3098.00,-0.0020
3097.00,-0.0020
3096.00,-0.0020
3095.00,-0.0020
3094.00,-0.0020
3093.00,-0.0020
3092.00,-0.0020
3091.00,-0.0020
3090.00,-0.0020
3089.00,-0.0020
3088.00,-0.0020
3087.00,-0.0020
3086.00,-0.0020
3085.00,-0.0020
3084.00,-0.0020
3083.00,-0.0020
3082.00,-0.0020
3081.00,-0.0020
3080.00,-0.0020
3079.00,-0.0020
3078.00,-0.0020
3077.00,-0.0020
3076.00,-0.0020
3075.00,-0.0020
3074.00,-0.0020
3073.00,-0.0020
3072.00,-0.0020
3071.00,-0.0020
3070.00,-0.0020
3069.00,-0.0020
3068.00,-0.0020
3067.00,-0.0020
3066.00,-0.0020
3065.00,-0.0020
3064.00,-0.0020
3063.00,-0.0020
3062.00,-0.0020
3061.00,-0.0020
3060.00,-0.0020
3059.00,-0.0020
3058.00,-0.0020
3057.00,-0.0020
3056.00,-0.0020
3055.00,-0.0020
3054.00,-0.0020
3053.00,-0.0020
3052.00,-0.0020
3051.00,-0.0020
3050.00,-0.0020
3049.00,-0.0020
3048.00,-0.0020
3047.00,-0.0020
3046.00,-0.0020
3045.00,-0.0020
3044.00,-0.0020
3043.00,-0.0020
3042.00,-0.0020
3041.00,-0.0020
3040.00,-0.0020
3039.00,-0.0020
3038.00,-0.0020
3037.00,-0.0020
3036.00,-0.0020
3035.00,-0.0020
3034.00,-0.0020
3033.00,-0.0020
3032.00,-0.0020
3031.00,-0.0020
3030.00,-0.0020
3029.00,-0.0020
3028.00,-0.0020
3027.00,-0.0020
3026.00,-0.0020
3025.00,-0.0020
3024.00,-0.0020
3023.00,-0.0020
3022.00,-0.0020
3021.00,-0.0020
3020.00,-0.0020
3019.00,-0.0020
3018.00,-0.0020
3017.00,-0.0020
3016.00,-0.0020
3015.00,-0.0020
3014.00,-0.0020
3013.00,-0.0020
3012.00,-0.0020
3011.00,-0.0020
3010.00,-0.0020
3009.00,-0.0020
3008.00,-0.0020
3007.00,-0.0020
3006.00,-0.0020
3005.00,-0.0020
3004.00,-0.0020
3003.00,-0.0020
3002.00,-0.0020
3001.00,-0.0020
3000.00,-0.0020
2999.00,-0.0020
2998.00,-0.0020
2997.00,-0.0020
2996.00,-0.0020
2995.00,-0.0020
2994.00,-0.0020
2993.00,-0.0020
2992.00,-0.0020
2991.00,-0.0020
2990.00,-0.0020
2989.00,-0.0020
2988.00,-0.0020
2987.00,-0.0020
2986.00,-0.0020
2985.00,-0.0020
2984.00,-0.0020
2983.00,-0.0020
2982.00,-0.0020
2981.00,-0.0020
2980.00,-0.0020
2979.00,-0.0020
2978.00,-0.0020
2977.00,-0.0020
2976.00,-0.0020
2975.00,-0.0020
2974.00,-0.0020
2973.00,-0.0020
2972.00,-0.0020
2971.00,-0.0020
2970.00,-0.0020
2969.00,-0.0020
2968.00,-0.0020
2967.00,-0.0020
2966.00,-0.0020
2965.00,-0.0020
2964.00,-0.0020
2963.00,-0.0020
2962.00,-0.0020
2961.00,-0.0020
2960.00,-0.0020
2959.00,-0.0020
2958.00,-0.0020
2957.00,-0.0020
2956.00,-0.0020
2955.00,-0.0020
2954.00,-0.0020
2953.00,-0.0020
2952.00,-0.0020
2951.00,-0.0020
2950.00,-0.0020
2949.00,-0.0020
2948.00,-0.0020
2947.00,-0.0020
2946.00,-0.0020
2945.00,-0.0020
2944.00,-0.0020
2943.00,-0.0020
2942.00,-0.0020
2941.00,-0.0020
2940.00,-0.0020
2939.00,-0.0020
2938.00,-0.0020
2937.00,-0.0020
2936.00,-0.0020
2935.00,-0.0020
2934.00,-0.0020
2933.00,-0.0020
2932.00,-0.0020
2931.00,-0.0020
2930.00,-0.0020
2929.00,-0.0020
2928.00,-0.0020
2927.00,-0.0020
2926.00,-0.0020
2925.00,-0.0020
2924.00,-0.0020
2923.00,-0.0020
2922.00,-0.0020
2921.00,-0.0020
2920.00,-0.0020
2919.00,-0.0020
2918.00,-0.0020
2917.00,-0.0020
2916.00,-0.0020
2915.00,-0.0020
2914.00,-0.0020
2913.00,-0.0020
2912.00,-0.0020
2911.00,-0.0020
2910.00,-0.0020
2909.00,-0.0020
2908.00,-0.0020
2907.00,-0.0020
2906.00,-0.0020
2905.00,-0.0020
2904.00,-0.0020
2903.00,-0.0020
2902.00,-0.0020
2901.00,-0.0020
2900.00,-0.0020
2899.00,-0.0020
2898.00,-0.0020
2897.00,-0.0020
2896.00,-0.0020
2895.00,-0.0020
2894.00,-0.0020
2893.00,-0.0020
2892.00,-0.0020
2891.00,-0.0020
2890.00,-0.0020
2889.00,-0.0020
2888.00,-0.0020
2887.00,-0.0020
2886.00,-0.0020
2885.00,-0.0020
2884.00,-0.0020
2883.00,-0.0020
2882.00,-0.0020
2881.00,-0.0020
2880.00,-0.0020
2879.00,-0.0020
2878.00,-0.0020
2877.00,-0.0020
2876.00,-0.0020
2875.00,-0.0020
2874.00,-0.0020
2873.00,-0.0020
2872.00,-0.0020
2871.00,-0.0020
2870.00,-0.0020
2869.00,-0.0020
2868.00,-0.0020
2867.00,-0.0020
2866.00,-0.0020
2865.00,-0.0020
2864.00,-0.0020
2863.00,-0.0020
2862.00,-0.0020
2861.00,-0.0020
2860.00,-0.0020
2859.00,-0.0020
2858.00,-0.0020
2857.00,-0.0020
2856.00,-0.0020
2855.00,-0.0020
2854.00,-0.0020
2853.00,-0.0020
2852.00,-0.0020
2851.00,-0.0020
2850.00,-0.0020
2849.00,-0.0020
2848.00,-0.0020
2847.00,-0.0020
2846.00,-0.0020
2845.00,-0.0020
2844.00,-0.0020
2843.00,-0.0020
2842.00,-0.0020
2841.00,-0.0020
2840.00,-0.0020
2839.00,-0.0020
2838.00,-0.0020
2837.00,-0.0020
2836.00,-0.0020
2835.00,-0.0020
2834.00,-0.0020
2833.00,-0.0020
2832.00,-0.0020
2831.00,-0.0020
2830.00,-0.0020
2829.00,-0.0020
2828.00,-0.0020
2827.00,-0.0020
2826.00,-0.0020
2825.00,-0.0020
2824.00,-0.0020
2823.00,-0.0020
2822.00,-0.0020
2821.00,-0.0020
2820.00,-0.0020
2819.00,-0.0020
2818.00,-0.0020
2817.00,-0.0020
2816.00,-0.0020
2815.00,-0.0020
2814.00,-0.0020
2813.00,-0.0020
2812.00,-0.0020
2811.00,-0.0020
2810.00,-0.0020
2809.00,-0.0020
2808.00,-0.0020
2807.00,-0.0020
2806.00,-0.0020
2805.00,-0.0020
2804.00,-0.0020
2803.00,-0.0020
2802.00,-0.0020
2801.00,-0.0020
2800.00,-0.0020
2799.00,-0.0020
2798.00,-0.0020
2797.00,-0.0020
2796.00,-0.0020
2795.00,-0.0020
2794.00,-0.0020
2793.00,-0.0020
2792.00,-0.0020
2791.00,-0.0020
2790.00,-0.0020
2789.00,-0.0020
2788.00,-0.0020
2787.00,-0.0020
2786.00,-0.0020
2785.00,-0.0020
2784.00,-0.0020
2783.00,-0.0020
2782.00,-0.0020
2781.00,-0.0020
2780.00,-0.0020
2779.00,-0.0020
2778.00,-0.0020
2777.00,-0.0020
2776.00,-0.0020
2775.00,-0.0020
2774.00,-0.0020
2773.00,-0.0020
2772.00,-0.0020
2771.00,-0.0020
2770.00,-0.0020
2769.00,-0.0020
2768.00,-0.0020
2767.00,-0.0020
2766.00,-0.0020
2765.00,-0.0020
2764.00,-0.0020
2763.00,-0.0020
2762.00,-0.0020
2761.00,-0.0020
2760.00,-0.0020
2759.00,-0.0020
2758.00,-0.0020
2757.00,-0.0020
2756.00,-0.0020
2755.00,-0.0020
2754.00,-0.0020
2753.00,-0.0020
2752.00,-0.0020
2751.00,-0.0020
2750.00,-0.0020
2749.00,-0.0020
2748.00,-0.0020
2747.00,-0.0020
2746.00,-0.0020
2745.00,-0.0020
2744.00,-0.0020
2743.00,-0.0020
2742.00,-0.0020
2741.00,-0.0020
2740.00,-0.0020
2739.00,-0.0020
2738.00,-0.0020
2737.00,-0.0020
2736.00,-0.0020
2735.00,-0.0020
2734.00,-0.0020
2733.00,-0.0020
2732.00,-0.0020
2731.00,-0.0020
2730.00,-0.0020
2729.00,-0.0020
2728.00,-0.0020
2727.00,-0.0020
2726.00,-0.0020
2725.00,-0.0020
2724.00,-0.0020
2723.00,-0.0020
2722.00,-0.0020
2721.00,-0.0020
2720.00,-0.0020
2719.00,-0.0020
2718.00,-0.0020
2717.00,-0.0020
2716.00,-0.0020
2715.00,-0.0020
2714.00,-0.0020
2713.00,-0.0020
2712.00,-0.0020
2711.00,-0.0020
2710.00,-0.0020
2709.00,-0.0020
2708.00,-0.0020
2707.00,-0.0020
2706.00,-0.0020
2705.00,-0.0020
2704.00,-0.0020
2703.00,-0.0020
2702.00,-0.0020
2701.00,-0.0020
2700.00,-0.0020
2699.00,-0.0020
2698.00,-0.0020
2697.00,-0.0020
2696.00,-0.0020
2695.00,-0.0020
2694.00,-0.0020
2693.00,-0.0020
2692.00,-0.0020
2691.00,-0.0020
2690.00,-0.0020
2689.00,-0.0020
2688.00,-0.0020
2687.00,-0.0020
2686.00,-0.0020
2685.00,-0.0020
2684.00,-0.0020
2683.00,-0.0020
2682.00,-0.0020
2681.00,-0.0020
2680.00,-0.0020
2679.00,-0.0020
2678.00,-0.0020
2677.00,-0.0020
2676.00,-0.0020
2675.00,-0.0020
2674.00,-0.0020
2673.00,-0.0020
2672.00,-0.0020
2671.00,-0.0020
2670.00,-0.0020
2669.00,-0.0020
2668.00,-0.0020
2667.00,-0.0020
2666.00,-0.0020
2665.00,-0.0020
2664.00,-0.0020
2663.00,-0.0020
2662.00,-0.0020
2661.00,-0.0020
2660.00,-0.0020
2659.00,-0.0020
2658.00,-0.0020
2657.00,-0.0020
2656.00,-0.0020
2655.00,-0.0020
2654.00,-0.0020
2653.00,-0.0020
2652.00,-0.0020
2651.00,-0.0020
2650.00,-0.0020
2649.00,-0.0020
2648.00,-0.0020
2647.00,-0.0020
2646.00,-0.0020
2645.00,-0.0020
2644.00,-0.0020
2643.00,-0.0020
2642.00,-0.0020
2641.00,-0.0020
2640.00,-0.0020
2639.00,-0.0020
2638.00,-0.0020
2637.00,-0.0020
2636.00,-0.0020
2635.00,-0.0020
2634.00,-0.0020
2633.00,-0.0020
2632.00,-0.0020
2631.00,-0.0020
2630.00,-0.0020
2629.00,-0.0020
2628.00,-0.0020
2627.00,-0.0020
2626.00,-0.0020
2625.00,-0.0020
2624.00,-0.0020
2623.00,-0.0020
2622.00,-0.0020
2621.00,-0.0020
2620.00,-0.0020
2619.00,-0.0020
2618.00,-0.0020
2617.00,-0.0020
2616.00,-0.0020
2615.00,-0.0020
2614.00,-0.0020
2613.00,-0.0020
2612.00,-0.0020
2611.00,-0.0020
2610.00,-0.0020
2609.00,-0.0020
2608.00,-0.0020
2607.00,-0.0020
2606.00,-0.0020
2605.00,-0.0020
2604.00,-0.0020
2603.00,-0.0020
2602.00,-0.0020
2601.00,-0.0020
2600.00,-0.0020
2599.00,-0.0020
2598.00,-0.0020
2597.00,-0.0020
2596.00,-0.0020
2595.00,-0.0020
2594.00,-0.0020
2593.00,-0.0020
2592.00,-0.0020
2591.00,-0.0020
2590.00,-0.0020
2589.00,-0.0020
2588.00,-0.0020
2587.00,-0.0020
2586.00,-0.0020
2585.00,-0.0020
2584.00,-0.0020
2583.00,-0.0020
2582.00,-0.0020
2581.00,-0.0020
2580.00,-0.0020
2579.00,-0.0020
2578.00,-0.0020
2577.00,-0.0020
2576.00,-0.0020
2575.00,-0.0020
2574.00,-0.0020
2573.00,-0.0020
2572.00,-0.0020
2571.00,-0.0020
2570.00,-0.0020
2569.00,-0.0020
2568.00,-0.0020
2567.00,-0.0020
2566.00,-0.0020
2565.00,-0.0020
2564.00,-0.0020
2563.00,-0.0020
2562.00,-0.0020
2561.00,-0.0020
2560.00,-0.0020
2559.00,-0.0020
2558.00,-0.0020
2557.00,-0.0020
2556.00,-0.0020
2555.00,-0.0020
2554.00,-0.0020
2553.00,-0.0020
2552.00,-0.0020
2551.00,-0.0020
2550.00,-0.0020
2549.00,-0.0020
2548.00,-0.0020
2547.00,-0.0020
2546.00,-0.0020
2545.00,-0.0020
2544.00,-0.0020
2543.00,-0.0020
2542.00,-0.0020
2541.00,-0.0020
2540.00,-0.0020
2539.00,-0.0020
2538.00,-0.0020
2537.00,-0.0020
2536.00,-0.0020
2535.00,-0.0020
2534.00,-0.0020
2533.00,-0.0020
2532.00,-0.0020
2531.00,-0.0020
2530.00,-0.0020
2529.00,-0.0020
2528.00,-0.0020
2527.00,-0.0020
2526.00,-0.0020
2525.00,-0.0020
2524.00,-0.0020
2523.00,-0.0020
2522.00,-0.0020
2521.00,-0.0020
2520.00,-0.0020
2519.00,-0.0020
2518.00,-0.0020
2517.00,-0.0020
2516.00,-0.0020
2515.00,-0.0020
2514.00,-0.0020
2513.00,-0.0020
2512.00,-0.0020
2511.00,-0.0020
2510.00,-0.0020
2509.00,-0.0020
2508.00,-0.0020
2507.00,-0.0020
2506.00,-0.0020
2505.00,-0.0020
2504.00,-0.0020
2503.00,-0.0020
2502.00,-0.0020
2501.00,-0.0020
2500.00,-0.0020
2499.00,-0.0020
2498.00,-0.0020
2497.00,-0.0020
2496.00,-0.0020
2495.00,-0.0020
2494.00,-0.0020
2493.00,-0.0020
2492.00,-0.0020
2491.00,-0.0020
2490.00,-0.0020
2489.00,-0.0020
2488.00,-0.0020
2487.00,-0.0020
2486.00,-0.0020
2485.00,-0.0020
2484.00,-0.0020
2483.00,-0.0020
2482.00,-0.0020
2481.00,-0.0020
2480.00,-0.0020
2479.00,-0.0020
2478.00,-0.0020
2477.00,-0.0020
2476.00,-0.0020
2475.00,-0.0020
2474.00,-0.0020
2473.00,-0.0020
2472.00,-0.0020
2471.00,-0.0020
2470.00,-0.0020
2469.00,-0.0020
2468.00,-0.0020
2467.00,-0.0020
2466.00,-0.0020
2465.00,-0.0020
2464.00,-0.0020
2463.00,-0.0020
2462.00,-0.0020
2461.00,-0.0020
2460.00,-0.0020
2459.00,-0.0020
2458.00,-0.0020
2457.00,-0.0020
2456.00,-0.0020
2455.00,-0.0020
2454.00,-0.0020
2453.00,-0.0020
2452.00,-0.0020
2451.00,-0.0020
2450.00,-0.0020
2449.00,-0.0020
2448.00,-0.0020
2447.00,-0.0020
2446.00,-0.0020
2445.00,-0.0020
2444.00,-0.0020
2443.00,-0.0020
2442.00,-0.0020
2441.00,-0.0020
2440.00,-0.0020
2439.00,-0.0020
2438.00,-0.0020
2437.00,-0.0020
2436.00,-0.0020
2435.00,-0.0020
2434.00,-0.0020
2433.00,-0.0020
2432.00,-0.0020
2431.00,-0.0020
2430.00,-0.0020
2429.00,-0.0020
2428.00,-0.0020
2427.00,-0.0020
2426.00,-0.0020
2425.00,-0.0020
2424.00,-0.0020
2423.00,-0.0020
2422.00,-0.0020
2421.00,-0.0020
2420.00,-0.0020
2419.00,-0.0020
2418.00,-0.0020
2417.00,-0.0020
2416.00,-0.0020
2415.00,-0.0020
2414.00,-0.0020
2413.00,-0.0020
2412.00,-0.0020
2411.00,-0.0020
2410.00,-0.0020
2409.00,-0.0020
2408.00,-0.0020
2407.00,-0.0020
2406.00,-0.0020
2405.00,-0.0020
2404.00,-0.0020
2403.00,-0.0020
2402.00,-0.0020
2401.00,-0.0020
2400.00,-0.0020
2399.00,-0.0020
2398.00,-0.0020
2397.00,-0.0020
2396.00,-0.0020
2395.00,-0.0020
2394.00,-0.0020
2393.00,-0.0020
2392.00,-0.0020
2391.00,-0.0020
2390.00,-0.0020
2389.00,-0.0020
2388.00,-0.0020
2387.00,-0.0021
2386.00,-0.0021
2385.00,-0.0021
2384.00,-0.0021
2383.00,-0.0021
2382.00,-0.0021
2381.00,-0.0021
2380.00,-0.0020
2379.00,-0.0019
2378.00,-0.0019
2377.00,-0.0018
2376.00,-0.0018
2375.00,-0.0018
2374.00,-0.0019
2373.00,-0.0019
2372.00,-0.0020
2371.00,-0.0020
2370.00,-0.0020
2369.00,-0.0021
2368.00,-0.0021
2367.00,-0.0021
2366.00,-0.0021
2365.00,-0.0021
2364.00,-0.0020
2363.00,-0.0020
2362.00,-0.0021
2361.00,-0.0021
2360.00,-0.0021
2359.00,-0.0022
2358.00,-0.0022
2357.00,-0.0022
2356.00,-0.0021
2355.00,-0.0021
2354.00,-0.0020
2353.00,-0.0019
2352.00,-0.0020
2351.00,-0.0021
2350.00,-0.0023
2349.00,-0.0024
2348.00,-0.0024
2347.00,-0.0022
2346.00,-0.0020
2345.00,-0.0019
2344.00,-0.0020
2343.00,-0.0021
2342.00,-0.0022
2341.00,-0.0022
2340.00,-0.0022
2339.00,-0.0022
2338.00,-0.0022
2337.00,-0.0022
2336.00,-0.0022
2335.00,-0.0022
2334.00,-0.0022
2333.00,-0.0022
2332.00,-0.0022
2331.00,-0.0022
2330.00,-0.0022
2329.00,-0.0022
2328.00,-0.0023
2327.00,-0.0023
2326.00,-0.0024
2325.00,-0.0024
2324.00,-0.0023
2323.00,-0.0023
2322.00,-0.0023
2321.00,-0.0023
2320.00,-0.0023
2319.00,-0.0023
2318.00,-0.0023
2317.00,-0.0023
2316.00,-0.0022
2315.00,-0.0022
2314.00,-0.0021
2313.00,-0.0021
2312.00,-0.0021
2311.00,-0.0022
2310.00,-0.0022
2309.00,-0.0022
2308.00,-0.0022
2307.00,-0.0022
2306.00,-0.0021
2305.00,-0.0021
2304.00,-0.0021
2303.00,-0.0021
2302.00,-0.0021
2301.00,-0.0021
2300.00,-0.0021
2299.00,-0.0021
2298.00,-0.0021
2297.00,-0.0021
2296.00,-0.0021
2295.00,-0.0021
2294.00,-0.0021
2293.00,-0.0021
2292.00,-0.0021
2291.00,-0.0020
2290.00,-0.0020
2289.00,-0.0020
2288.00,-0.0020
2287.00,-0.0020
2286.00,-0.0020
2285.00,-0.0020
2284.00,-0.0020
2283.00,-0.0020
2282.00,-0.0020
2281.00,-0.0020
2280.00,-0.0020
2279.00,-0.0020
2278.00,-0.0020
2277.00,-0.0020
2276.00,-0.0020
2275.00,-0.0020
2274.00,-0.0020
2273.00,-0.0020
2272.00,-0.0020
2271.00,-0.0020
2270.00,-0.0020
2269.00,-0.0020
2268.00,-0.0020
2267.00,-0.0020
2266.00,-0.0020
2265.00,-0.0020
2264.00,-0.0020
2263.00,-0.0020
2262.00,-0.0020
2261.00,-0.0020
2260.00,-0.0020
2259.00,-0.0020
2258.00,-0.0020
2257.00,-0.0020
2256.00,-0.0020
2255.00,-0.0020
2254.00,-0.0020
2253.00,-0.0020
2252.00,-0.0020
2251.00,-0.0020
2250.00,-0.0020
2249.00,-0.0020
2248.00,-0.0020
2247.00,-0.0020
2246.00,-0.0020
2245.00,-0.0020
2244.00,-0.0020
2243.00,-0.0020
2242.00,-0.0020
2241.00,-0.0020
2240.00,-0.0020
2239.00,-0.0020
2238.00,-0.0020
2237.00,-0.0020
2236.00,-0.0020
2235.00,-0.0020
2234.00,-0.0020
2233.00,-0.0020
2232.00,-0.0020
2231.00,-0.0020
2230.00,-0.0020
2229.00,-0.0020
2228.00,-0.0020
2227.00,-0.0020
2226.00,-0.0020
2225.00,-0.0020
2224.00,-0.0020
2223.00,-0.0020
2222.00,-0.0020
2221.00,-0.0020
2220.00,-0.0020
2219.00,-0.0020
2218.00,-0.0020
2217.00,-0.0020
2216.00,-0.0020
2215.00,-0.0020
2214.00,-0.0020
2213.00,-0.0020
2212.00,-0.0020
2211.00,-0.0020
2210.00,-0.0020
2209.00,-0.0020
2208.00,-0.0020
2207.00,-0.0020
2206.00,-0.0020
2205.00,-0.0020
2204.00,-0.0020
2203.00,-0.0020
2202.00,-0.0020
2201.00,-0.0020
2200.00,-0.0020
2199.00,-0.0020
2198.00,-0.0020
2197.00,-0.0020
2196.00,-0.0020
2195.00,-0.0020
2194.00,-0.0020
2193.00,-0.0020
2192.00,-0.0020
2191.00,-0.0020
2190.00,-0.0020
2189.00,-0.0020
2188.00,-0.0020
2187.00,-0.0020
2186.00,-0.0020
2185.00,-0.0020
2184.00,-0.0020
2183.00,-0.0020
2182.00,-0.0020
2181.00,-0.0020
2180.00,-0.0020
2179.00,-0.0020
2178.00,-0.0020
2177.00,-0.0020
2176.00,-0.0020
2175.00,-0.0020
2174.00,-0.0020
2173.00,-0.0020
2172.00,-0.0020
2171.00,-0.0020
2170.00,-0.0020
2169.00,-0.0020
2168.00,-0.0020
2167.00,-0.0020
2166.00,-0.0020
2165.00,-0.0020
2164.00,-0.0020
2163.00,-0.0020
2162.00,-0.0020
2161.00,-0.0020
2160.00,-0.0020
2159.00,-0.0020
2158.00,-0.0020
2157.00,-0.0020
2156.00,-0.0020
2155.00,-0.0020
2154.00,-0.0020
2153.00,-0.0020
2152.00,-0.0020
2151.00,-0.0020
2150.00,-0.0020
2149.00,-0.0020
2148.00,-0.0020
2147.00,-0.0020
2146.00,-0.0020
2145.00,-0.0020
2144.00,-0.0020
2143.00,-0.0020
2142.00,-0.0020
2141.00,-0.0020
2140.00,-0.0020
2139.00,-0.0020
2138.00,-0.0020
2137.00,-0.0020
2136.00,-0.0020
2135.00,-0.0020
2134.00,-0.0020
2133.00,-0.0020
2132.00,-0.0020
2131.00,-0.0020
2130.00,-0.0020
2129.00,-0.0020
2128.00,-0.0020
2127.00,-0.0020
2126.00,-0.0020
2125.00,-0.0020
2124.00,-0.0020
2123.00,-0.0020
2122.00,-0.0020
2121.00,-0.0020
2120.00,-0.0020
2119.00,-0.0020
2118.00,-0.0020
2117.00,-0.0020
2116.00,-0.0020
2115.00,-0.0020
2114.00,-0.0020
2113.00,-0.0020
2112.00,-0.0020
2111.00,-0.0020
2110.00,-0.0020
2109.00,-0.0020
2108.00,-0.0020
2107.00,-0.0020
2106.00,-0.0020
2105.00,-0.0020
2104.00,-0.0020
2103.00,-0.0020
2102.00,-0.0020
2101.00,-0.0020
2100.00,-0.0020
2099.00,-0.0020
2098.00,-0.0020
2097.00,-0.0020
2096.00,-0.0020
2095.00,-0.0021
2094.00,-0.0021
2093.00,-0.0021
2092.00,-0.0021
2091.00,-0.0021
2090.00,-0.0021
2089.00,-0.0020
2088.00,-0.0020
2087.00,-0.0020
2086.00,-0.0020
2085.00,-0.0020
2084.00,-0.0020
2083.00,-0.0020
2082.00,-0.0020
2081.00,-0.0020
2080.00,-0.0020
2079.00,-0.0020
2078.00,-0.0020
2077.00,-0.0020
2076.00,-0.0020
2075.00,-0.0020
2074.00,-0.0020
2073.00,-0.0020
2072.00,-0.0020
2071.00,-0.0020
2070.00,-0.0020
2069.00,-0.0020
2068.00,-0.0020
2067.00,-0.0020
2066.00,-0.0020
2065.00,-0.0020
2064.00,-0.0020
2063.00,-0.0020
2062.00,-0.0020
2061.00,-0.0020
2060.00,-0.0020
2059.00,-0.0020
2058.00,-0.0020
2057.00,-0.0020
2056.00,-0.0020
2055.00,-0.0020
2054.00,-0.0020
2053.00,-0.0020
2052.00,-0.0020
2051.00,-0.0020
2050.00,-0.0020
2049.00,-0.0020
2048.00,-0.0020
2047.00,-0.0020
2046.00,-0.0020
2045.00,-0.0020
2044.00,-0.0020
2043.00,-0.0020
2042.00,-0.0020
2041.00,-0.0020
2040.00,-0.0020
2039.00,-0.0020
2038.00,-0.0020
2037.00,-0.0020
2036.00,-0.0020
2035.00,-0.0020
2034.00,-0.0020
2033.00,-0.0020
2032.00,-0.0020
2031.00,-0.0020
2030.00,-0.0020
2029.00,-0.0020
2028.00,-0.0020
2027.00,-0.0020
2026.00,-0.0020
2025.00,-0.0020
2024.00,-0.0020
2023.00,-0.0020
2022.00,-0.0020
2021.00,-0.0020
2020.00,-0.0020
2019.00,-0.0020
2018.00,-0.0020
2017.00,-0.0020
2016.00,-0.0020
2015.00,-0.0020
2014.00,-0.0020
2013.00,-0.0020
2012.00,-0.0020
2011.00,-0.0020
2010.00,-0.0020
2009.00,-0.0020
2008.00,-0.0020
2007.00,-0.0020
2006.00,-0.0020
2005.00,-0.0020
2004.00,-0.0020
2003.00,-0.0020
2002.00,-0.0020
2001.00,-0.0020
2000.00,-0.0020
1999.00,-0.0020
1998.00,-0.0020
1997.00,-0.0020
1996.00,-0.0020
1995.00,-0.0020
1994.00,-0.0020
1993.00,-0.0020
1992.00,-0.0020
1991.00,-0.0020
1990.00,-0.0020
1989.00,-0.0020
1988.00,-0.0020
1987.00,-0.0020
1986.00,-0.0020
1985.00,-0.0020
1984.00,-0.0020
1983.00,-0.0020
1982.00,-0.0020
1981.00,-0.0020
1980.00,-0.0020
1979.00,-0.0020
1978.00,-0.0020
1977.00,-0.0020
1976.00,-0.0020
1975.00,-0.0020
1974.00,-0.0020
1973.00,-0.0020
1972.00,-0.0020
1971.00,-0.0020
1970.00,-0.0020
1969.00,-0.0020
1968.00,-0.0020
1967.00,-0.0020
1966.00,-0.0020
1965.00,-0.0020
1964.00,-0.0020
1963.00,-0.0020
1962.00,-0.0020
1961.00,-0.0020
1960.00,-0.0020
1959.00,-0.0020
1958.00,-0.0020
1957.00,-0.0020
1956.00,-0.0020
1955.00,-0.0020
1954.00,-0.0020
1953.00,-0.0020
1952.00,-0.0020
1951.00,-0.0020
1950.00,-0.0020
1949.00,-0.0020
1948.00,-0.0020
1947.00,-0.0020
1946.00,-0.0020
1945.00,-0.0020
1944.00,-0.0020
1943.00,-0.0020
1942.00,-0.0020
1941.00,-0.0020
1940.00,-0.0020
1939.00,-0.0020
1938.00,-0.0020
1937.00,-0.0020
1936.00,-0.0020
1935.00,-0.0020
1934.00,-0.0020
1933.00,-0.0020
1932.00,-0.0020
1931.00,-0.0020
1930.00,-0.0020
1929.00,-0.0020
1928.00,-0.0020
1927.00,-0.0020
1926.00,-0.0020
1925.00,-0.0020
1924.00,-0.0020
1923.00,-0.0020
1922.00,-0.0020
1921.00,-0.0020
1920.00,-0.0020
1919.00,-0.0020
1918.00,-0.0020
1917.00,-0.0020
1916.00,-0.0020
1915.00,-0.0020
1914.00,-0.0020
1913.00,-0.0020
1912.00,-0.0020
1911.00,-0.0020
1910.00,-0.0020
1909.00,-0.0020
1908.00,-0.0020
1907.00,-0.0020
1906.00,-0.0020
1905.00,-0.0020
1904.00,-0.0020
1903.00,-0.0020
1902.00,-0.0020
1901.00,-0.0020
1900.00,-0.0020
1899.00,-0.0020
1898.00,-0.0020
1897.00,-0.0020
1896.00,-0.0020
1895.00,-0.0020
1894.00,-0.0020
1893.00,-0.0020
1892.00,-0.0020
1891.00,-0.0020
1890.00,-0.0020
1889.00,-0.0020
1888.00,-0.0020
1887.00,-0.0020
1886.00,-0.0020
1885.00,-0.0020
1884.00,-0.0020
1883.00,-0.0020
1882.00,-0.0020
1881.00,-0.0020
1880.00,-0.0020
1879.00,-0.0020
1878.00,-0.0020
1877.00,-0.0020
1876.00,-0.0020
1875.00,-0.0020
1874.00,-0.0020
1873.00,-0.0020
1872.00,-0.0020
1871.00,-0.0020
1870.00,-0.0020
1869.00,-0.0020
1868.00,-0.0020
1867.00,-0.0020
1866.00,-0.0020
1865.00,-0.0020
1864.00,-0.0020
1863.00,-0.0020
1862.00,-0.0020
1861.00,-0.0020
1860.00,-0.0020
1859.00,-0.0020
1858.00,-0.0020
1857.00,-0.0020
1856.00,-0.0020
1855.00,-0.0020
1854.00,-0.0020
1853.00,-0.0020
1852.00,-0.0020
1851.00,-0.0020
1850.00,-0.0020
1849.00,-0.0020
1848.00,-0.0020
1847.00,-0.0020
1846.00,-0.0020
1845.00,-0.0020
1844.00,-0.0020
1843.00,-0.0020
1842.00,-0.0020
1841.00,-0.0020
1840.00,-0.0020
1839.00,-0.0020
1838.00,-0.0020
1837.00,-0.0020
1836.00,-0.0020
1835.00,-0.0020
1834.00,-0.0020
1833.00,-0.0020
1832.00,-0.0020
1831.00,-0.0020
1830.00,-0.0020
1829.00,-0.0020
1828.00,-0.0020
1827.00,-0.0020
1826.00,-0.0020
1825.00,-0.0020
1824.00,-0.0020
1823.00,-0.0020
1822.00,-0.0020
1821.00,-0.0020
1820.00,-0.0020
1819.00,-0.0020
1818.00,-0.0020
1817.00,-0.0020
1816.00,-0.0020
1815.00,-0.0020
1814.00,-0.0020
1813.00,-0.0020
1812.00,-0.0020
1811.00,-0.0020
1810.00,-0.0020
1809.00,-0.0020
1808.00,-0.0020
1807.00,-0.0020
1806.00,-0.0020
1805.00,-0.0020
1804.00,-0.0020
1803.00,-0.0020
1802.00,-0.0020
1801.00,-0.0020
1800.00,-0.0020
1799.00,-0.0020
1798.00,-0.0020
1797.00,-0.0020
1796.00,-0.0021
1795.00,-0.0021
1794.00,-0.0021
1793.00,-0.0021
1792.00,-0.0021
1791.00,-0.0021
1790.00,-0.0021
1789.00,-0.0020
1788.00,-0.0020
1787.00,-0.0020
1786.00,-0.0020
1785.00,-0.0020
1784.00,-0.0020
1783.00,-0.0020
1782.00,-0.0020
1781.00,-0.0020
1780.00,-0.0020
1779.00,-0.0020
1778.00,-0.0020
1777.00,-0.0020
1776.00,-0.0020
1775.00,-0.0020
1774.00,-0.0020
1773.00,-0.0020
1772.00,-0.0020
1771.00,-0.0020
1770.00,-0.0020
1769.00,-0.0020
1768.00,-0.0020
1767.00,-0.0020
1766.00,-0.0020
1765.00,-0.0020
1764.00,-0.0020
1763.00,-0.0020
1762.00,-0.0020
1761.00,-0.0020
1760.00,-0.0020
1759.00,-0.0020
1758.00,-0.0020
1757.00,-0.0020
1756.00,-0.0020
1755.00,-0.0020
1754.00,-0.0020
1753.00,-0.0020
1752.00,-0.0020
1751.00,-0.0020
1750.00,-0.0020
1749.00,-0.0020
1748.00,-0.0020
1747.00,-0.0020
1746.00,-0.0020
1745.00,-0.0020
1744.00,-0.0020
1743.00,-0.0020
1742.00,-0.0020
1741.00,-0.0020
1740.00,-0.0020
1739.00,-0.0020
1738.00,-0.0020
1737.00,-0.0020
1736.00,-0.0020
1735.00,-0.0020
1734.00,-0.0020
1733.00,-0.0020
1732.00,-0.0020
1731.00,-0.0020
1730.00,-0.0020
1729.00,-0.0020
1728.00,-0.0020
1727.00,-0.0020
1726.00,-0.0020
1725.00,-0.0020
1724.00,-0.0020
1723.00,-0.0020
1722.00,-0.0020
1721.00,-0.0020
1720.00,-0.0020
1719.00,-0.0020
1718.00,-0.0020
1717.00,-0.0020
1716.00,-0.0020
1715.00,-0.0020
1714.00,-0.0020
1713.00,-0.0020
1712.00,-0.0020
1711.00,-0.0020
1710.00,-0.0020
1709.00,-0.0020
1708.00,-0.0020
1707.00,-0.0020
1706.00,-0.0020
1705.00,-0.0020
1704.00,-0.0020
1703.00,-0.0020
1702.00,-0.0020
1701.00,-0.0020
1700.00,-0.0020
1699.00,-0.0020
1698.00,-0.0020
1697.00,-0.0020
1696.00,-0.0020
1695.00,-0.0020
1694.00,-0.0020
1693.00,-0.0020
1692.00,-0.0020
1691.00,-0.0020
1690.00,-0.0020
1689.00,-0.0020
1688.00,-0.0020
1687.00,-0.0020
1686.00,-0.0020
1685.00,-0.0020
1684.00,-0.0020
1683.00,-0.0020
1682.00,-0.0020
1681.00,-0.0020
1680.00,-0.0020
1679.00,-0.0020
1678.00,-0.0021
1677.00,-0.0021
1676.00,-0.0021
1675.00,-0.0021
1674.00,-0.0020
1673.00,-0.0020
1672.00,-0.0020
1671.00,-0.0020
1670.00,-0.0020
1669.00,-0.0020
1668.00,-0.0020
1667.00,-0.0020
1666.00,-0.0020
1665.00,-0.0020
1664.00,-0.0020
1663.00,-0.0020
1662.00,-0.0020
1661.00,-0.0020
1660.00,-0.0020
1659.00,-0.0020
1658.00,-0.0020
1657.00,-0.0020
1656.00,-0.0020
1655.00,-0.0020
1654.00,-0.0020
1653.00,-0.0020
1652.00,-0.0020
1651.00,-0.0020
1650.00,-0.0020
1649.00,-0.0020
1648.00,-0.0020
1647.00,-0.0020
1646.00,-0.0020
1645.00,-0.0020
1644.00,-0.0020
1643.00,-0.0020
1642.00,-0.0020
1641.00,-0.0020
1640.00,-0.0020
1639.00,-0.0021
1638.00,-0.0021
1637.00,-0.0021
1636.00,-0.0021
1635.00,-0.0020
1634.00,-0.0020
1633.00,-0.0020
1632.00,-0.0020
1631.00,-0.0020
1630.00,-0.0020
1629.00,-0.0020
1628.00,-0.0020
1627.00,-0.0021
1626.00,-0.0021
1625.00,-0.0021
1624.00,-0.0021
1623.00,-0.0021
1622.00,-0.0021
1621.00,-0.0021
1620.00,-0.0021
1619.00,-0.0021
1618.00,-0.0020
1617.00,-0.0020
1616.00,-0.0020
1615.00,-0.0020
1614.00,-0.0020
1613.00,-0.0020
1612.00,-0.0020
1611.00,-0.0020
1610.00,-0.0020
1609.00,-0.0020
1608.00,-0.0020
1607.00,-0.0020
1606.00,-0.0020
1605.00,-0.0020
1604.00,-0.0020
1603.00,-0.0020
1602.00,-0.0020
1601.00,-0.0020
1600.00,-0.0020
1599.00,-0.0020
1598.00,-0.0020
1597.00,-0.0020
1596.00,-0.0020
1595.00,-0.0020
1594.00,-0.0020
1593.00,-0.0020
1592.00,-0.0020
1591.00,-0.0020
1590.00,-0.0020
1589.00,-0.0020
1588.00,-0.0020
1587.00,-0.0020
1586.00,-0.0020
1585.00,-0.0020
1584.00,-0.0020
1583.00,-0.0020
1582.00,-0.0020
1581.00,-0.0020
1580.00,-0.0020
1579.00,-0.0020
1578.00,-0.0020
1577.00,-0.0020
1576.00,-0.0020
1575.00,-0.0020
1574.00,-0.0020
1573.00,-0.0020
1572.00,-0.0020
1571.00,-0.0021
1570.00,-0.0020
1569.00,-0.0020
1568.00,-0.0020
1567.00,-0.0020
1566.00,-0.0020
1565.00,-0.0020
1564.00,-0.0020
1563.00,-0.0020
1562.00,-0.0020
1561.00,-0.0020
1560.00,-0.0021
1559.00,-0.0021
1558.00,-0.0020
1557.00,-0.0020
1556.00,-0.0020
1555.00,-0.0020
1554.00,-0.0020
1553.00,-0.0020
1552.00,-0.0020
1551.00,-0.0020
1550.00,-0.0020
1549.00,-0.0020
1548.00,-0.0020
1547.00,-0.0020
1546.00,-0.0020
1545.00,-0.0020
1544.00,-0.0020
1543.00,-0.0020
1542.00,-0.0020
1541.00,-0.0020
1540.00,-0.0020
1539.00,-0.0020
1538.00,-0.0020
1537.00,-0.0020
1536.00,-0.0020
1535.00,-0.0020
1534.00,-0.0020
1533.00,-0.0020
1532.00,-0.0020
1531.00,-0.0020
1530.00,-0.0020
1529.00,-0.0020
1528.00,-0.0020
1527.00,-0.0020
1526.00,-0.0020
1525.00,-0.0020
1524.00,-0.0020
1523.00,-0.0020
1522.00,-0.0020
1521.00,-0.0020
1520.00,-0.0020
1519.00,-0.0020
1518.00,-0.0020
1517.00,-0.0020
1516.00,-0.0020
1515.00,-0.0020
1514.00,-0.0021
1513.00,-0.0021
1512.00,-0.0021
1511.00,-0.0021
1510.00,-0.0021
1509.00,-0.0021
1508.00,-0.0021
1507.00,-0.0020
1506.00,-0.0020
1505.00,-0.0020
1504.00,-0.0020
1503.00,-0.0020
1502.00,-0.0020
1501.00,-0.0021
1500.00,-0.0021
1499.00,-0.0020
1498.00,-0.0020
1497.00,-0.0020
1496.00,-0.0020
1495.00,-0.0020
1494.00,-0.0020
1493.00,-0.0020
1492.00,-0.0020
1491.00,-0.0020
1490.00,-0.0020
1489.00,-0.0020
1488.00,-0.0020
1487.00,-0.0020
1486.00,-0.0020
1485.00,-0.0020
1484.00,-0.0020
1483.00,-0.0020
1482.00,-0.0020
1481.00,-0.0020
1480.00,-0.0020
1479.00,-0.0020
1478.00,-0.0020
1477.00,-0.0020
1476.00,-0.0020
1475.00,-0.0020
1474.00,-0.0020
1473.00,-0.0020
1472.00,-0.0020
1471.00,-0.0020
1470.00,-0.0020
1469.00,-0.0020
1468.00,-0.0020
1467.00,-0.0020
1466.00,-0.0020
1465.00,-0.0020
1464.00,-0.0020
1463.00,-0.0020
1462.00,-0.0021
1461.00,-0.0021
1460.00,-0.0021
1459.00,-0.0020
1458.00,-0.0020
1457.00,-0.0020
1456.00,-0.0020
1455.00,-0.0020
1454.00,-0.0020
1453.00,-0.0020
1452.00,-0.0020
1451.00,-0.0020
1450.00,-0.0020
1449.00,-0.0020
1448.00,-0.0020
1447.00,-0.0020
1446.00,-0.0020
1445.00,-0.0020
1444.00,-0.0020
1443.00,-0.0020
1442.00,-0.0020
1441.00,-0.0020
1440.00,-0.0020
1439.00,-0.0020
1438.00,-0.0019
1437.00,-0.0020
1436.00,-0.0020
1435.00,-0.0020
1434.00,-0.0020
1433.00,-0.0020
1432.00,-0.0020
1431.00,-0.0020
1430.00,-0.0020
1429.00,-0.0020
1428.00,-0.0020
1427.00,-0.0020
1426.00,-0.0020
1425.00,-0.0020
1424.00,-0.0020
1423.00,-0.0020
1422.00,-0.0020
1421.00,-0.0020
1420.00,-0.0020
1419.00,-0.0020
1418.00,-0.0020
1417.00,-0.0020
1416.00,-0.0020
1415.00,-0.0020
1414.00,-0.0020
1413.00,-0.0020
1412.00,-0.0020
1411.00,-0.0020
1410.00,-0.0020
1409.00,-0.0020
1408.00,-0.0020
1407.00,-0.0020
1406.00,-0.0020
1405.00,-0.0020
1404.00,-0.0020
1403.00,-0.0020
1402.00,-0.0020
1401.00,-0.0020
1400.00,-0.0020
1399.00,-0.0020
1398.00,-0.0020
1397.00,-0.0020
1396.00,-0.0020
1395.00,-0.0020
1394.00,-0.0020
1393.00,-0.0020
1392.00,-0.0020
1391.00,-0.0020
1390.00,-0.0020
1389.00,-0.0020
1388.00,-0.0020
1387.00,-0.0020
1386.00,-0.0020
1385.00,-0.0020
1384.00,-0.0020
1383.00,-0.0020
1382.00,-0.0020
1381.00,-0.0020
1380.00,-0.0020
1379.00,-0.0020
1378.00,-0.0020
1377.00,-0.0020
1376.00,-0.0020
1375.00,-0.0020
1374.00,-0.0020
1373.00,-0.0020
1372.00,-0.0020
1371.00,-0.0020
1370.00,-0.0020
1369.00,-0.0020
1368.00,-0.0020
1367.00,-0.0020
1366.00,-0.0020
1365.00,-0.0020
1364.00,-0.0020
1363.00,-0.0020
1362.00,-0.0020
1361.00,-0.0020
1360.00,-0.0020
1359.00,-0.0020
1358.00,-0.0020
1357.00,-0.0020
1356.00,-0.0020
1355.00,-0.0020
1354.00,-0.0020
1353.00,-0.0020
1352.00,-0.0020
1351.00,-0.0020
1350.00,-0.0020
1349.00,-0.0020
1348.00,-0.0020
1347.00,-0.0020
1346.00,-0.0020
1345.00,-0.0020
1344.00,-0.0020
1343.00,-0.0020
1342.00,-0.0020
1341.00,-0.0020
1340.00,-0.0020
1339.00,-0.0020
1338.00,-0.0020
1337.00,-0.0020
1336.00,-0.0020
1335.00,-0.0020
1334.00,-0.0020
1333.00,-0.0020
1332.00,-0.0020
1331.00,-0.0020
1330.00,-0.0020
1329.00,-0.0020
1328.00,-0.0020
1327.00,-0.0020
1326.00,-0.0020
1325.00,-0.0020
1324.00,-0.0020
1323.00,-0.0020
1322.00,-0.0020
1321.00,-0.0020
1320.00,-0.0020
1319.00,-0.0020
1318.00,-0.0020
1317.00,-0.0020
1316.00,-0.0020
1315.00,-0.0020
1314.00,-0.0020
1313.00,-0.0020
1312.00,-0.0020
1311.00,-0.0020
1310.00,-0.0020
1309.00,-0.0020
1308.00,-0.0020
1307.00,-0.0020
1306.00,-0.0020
1305.00,-0.0020
1304.00,-0.0020
1303.00,-0.0020
1302.00,-0.0020
1301.00,-0.0020
1300.00,-0.0020
1299.00,-0.0020
1298.00,-0.0020
1297.00,-0.0020
1296.00,-0.0020
1295.00,-0.0020
1294.00,-0.0020
1293.00,-0.0020
1292.00,-0.0020
1291.00,-0.0020
1290.00,-0.0020
1289.00,-0.0020
1288.00,-0.0020
1287.00,-0.0020
1286.00,-0.0020
1285.00,-0.0020
1284.00,-0.0020
1283.00,-0.0020
1282.00,-0.0020
1281.00,-0.0020
1280.00,-0.0020
1279.00,-0.0020
1278.00,-0.0020
1277.00,-0.0020
1276.00,-0.0020
1275.00,-0.0020
1274.00,-0.0020
1273.00,-0.0020
1272.00,-0.0020
1271.00,-0.0020
1270.00,-0.0020
1269.00,-0.0020
1268.00,-0.0020
1267.00,-0.0020
1266.00,-0.0020
1265.00,-0.0020
1264.00,-0.0020
1263.00,-0.0020
1262.00,-0.0020
1261.00,-0.0020
1260.00,-0.0020
1259.00,-0.0020
1258.00,-0.0020
1257.00,-0.0020
1256.00,-0.0020
1255.00,-0.0020
1254.00,-0.0020
1253.00,-0.0020
1252.00,-0.0020
1251.00,-0.0020
1250.00,-0.0020
1249.00,-0.0020
1248.00,-0.0020
1247.00,-0.0020
1246.00,-0.0020
1245.00,-0.0020
1244.00,-0.0020
1243.00,-0.0020
1242.00,-0.0020
1241.00,-0.0020
1240.00,-0.0020
1239.00,-0.0020
1238.00,-0.0020
1237.00,-0.0020
1236.00,-0.0020
1235.00,-0.0020
1234.00,-0.0020
1233.00,-0.0020
1232.00,-0.0019
1231.00,-0.0019
1230.00,-0.0019
1229.00,-0.0019
1228.00,-0.0019
1227.00,-0.0019
1226.00,-0.0019
1225.00,-0.0019
1224.00,-0.0019
1223.00,-0.0019
1222.00,-0.0020
1221.00,-0.0020
1220.00,-0.0020
1219.00,-0.0020
1218.00,-0.0020
1217.00,-0.0020
1216.00,-0.0020
1215.00,-0.0020
1214.00,-0.0020
1213.00,-0.0020
1212.00,-0.0020
1211.00,-0.0019
1210.00,-0.0019
1209.00,-0.0019
1208.00,-0.0020
1207.00,-0.0020
1206.00,-0.0020
1205.00,-0.0020
1204.00,-0.0020
1203.00,-0.0020
1202.00,-0.0020
1201.00,-0.0020
1200.00,-0.0020
1199.00,-0.0020
1198.00,-0.0020
1197.00,-0.0020
1196.00,-0.0020
1195.00,-0.0020
1194.00,-0.0020
1193.00,-0.0020
1192.00,-0.0020
1191.00,-0.0020
1190.00,-0.0020
1189.00,-0.0020
1188.00,-0.0020
1187.00,-0.0020
1186.00,-0.0020
1185.00,-0.0020
1184.00,-0.0020
1183.00,-0.0020
1182.00,-0.0020
1181.00,-0.0020
1180.00,-0.0020
1179.00,-0.0020
1178.00,-0.0020
1177.00,-0.0020
1176.00,-0.0020
1175.00,-0.0020
1174.00,-0.0020
1173.00,-0.0020
1172.00,-0.0020
1171.00,-0.0020
1170.00,-0.0020
1169.00,-0.0020
1168.00,-0.0020
1167.00,-0.0020
1166.00,-0.0020
1165.00,-0.0020
1164.00,-0.0020
1163.00,-0.0020
1162.00,-0.0020
1161.00,-0.0020
1160.00,-0.0020
1159.00,-0.0020
1158.00,-0.0020
1157.00,-0.0020
1156.00,-0.0020
1155.00,-0.0020
1154.00,-0.0020
1153.00,-0.0020
1152.00,-0.0020
1151.00,-0.0020
1150.00,-0.0020
1149.00,-0.0020
1148.00,-0.0020
1147.00,-0.0020
1146.00,-0.0020
1145.00,-0.0020
1144.00,-0.0020
1143.00,-0.0020
1142.00,-0.0020
1141.00,-0.0020
1140.00,-0.0020
1139.00,-0.0020
1138.00,-0.0020
1137.00,-0.0020
1136.00,-0.0020
1135.00,-0.0020
1134.00,-0.0020
1133.00,-0.0020
1132.00,-0.0020
1131.00,-0.0020
1130.00,-0.0020
1129.00,-0.0020
1128.00,-0.0020
1127.00,-0.0020
1126.00,-0.0020
1125.00,-0.0020
1124.00,-0.0020
1123.00,-0.0020
1122.00,-0.0020
1121.00,-0.0020
1120.00,-0.0020
1119.00,-0.0020
1118.00,-0.0020
1117.00,-0.0020
1116.00,-0.0020
1115.00,-0.0020
1114.00,-0.0020
1113.00,-0.0020
1112.00,-0.0020
1111.00,-0.0020
1110.00,-0.0020
1109.00,-0.0020
1108.00,-0.0020
1107.00,-0.0020
1106.00,-0.0020
1105.00,-0.0020
1104.00,-0.0020
1103.00,-0.0020
1102.00,-0.0020
1101.00,-0.0020
1100.00,-0.0020
1099.00,-0.0020
1098.00,-0.0020
1097.00,-0.0020
1096.00,-0.0020
1095.00,-0.0020
1094.00,-0.0020
1093.00,-0.0020
1092.00,-0.0020
1091.00,-0.0020
1090.00,-0.0020
1089.00,-0.0020
1088.00,-0.0021
1087.00,-0.0021
1086.00,-0.0021
1085.00,-0.0021
1084.00,-0.0021
1083.00,-0.0020
1082.00,-0.0020
1081.00,-0.0020
1080.00,-0.0020
1079.00,-0.0020
1078.00,-0.0020
1077.00,-0.0020
1076.00,-0.0020
1075.00,-0.0020
1074.00,-0.0020
1073.00,-0.0020
1072.00,-0.0020
1071.00,-0.0020
1070.00,-0.0020
1069.00,-0.0020
1068.00,-0.0020
1067.00,-0.0020
1066.00,-0.0020
1065.00,-0.0020
1064.00,-0.0020
1063.00,-0.0020
1062.00,-0.0020
1061.00,-0.0020
1060.00,-0.0020
1059.00,-0.0020
1058.00,-0.0020
1057.00,-0.0020
1056.00,-0.0020
1055.00,-0.0020
1054.00,-0.0020
1053.00,-0.0020
1052.00,-0.0020
1051.00,-0.0020
1050.00,-0.0020
1049.00,-0.0020
1048.00,-0.0020
1047.00,-0.0020
1046.00,-0.0020
1045.00,-0.0020
1044.00,-0.0020
1043.00,-0.0020
1042.00,-0.0020
1041.00,-0.0020
1040.00,-0.0020
1039.00,-0.0020
1038.00,-0.0021
1037.00,-0.0021
1036.00,-0.0020
1035.00,-0.0020
1034.00,-0.0020
1033.00,-0.0020
1032.00,-0.0020
1031.00,-0.0020
1030.00,-0.0020
1029.00,-0.0020
1028.00,-0.0020
1027.00,-0.0020
1026.00,-0.0020
1025.00,-0.0020
1024.00,-0.0020
1023.00,-0.0020
1022.00,-0.0020
1021.00,-0.0020
1020.00,-0.0020
1019.00,-0.0020
1018.00,-0.0020
1017.00,-0.0020
1016.00,-0.0020
1015.00,-0.0020
1014.00,-0.0020
1013.00,-0.0020
1012.00,-0.0020
1011.00,-0.0020
1010.00,-0.0020
1009.00,-0.0020
1008.00,-0.0020
1007.00,-0.0020
1006.00,-0.0020
1005.00,-0.0020
1004.00,-0.0020
1003.00,-0.0020
1002.00,-0.0020
1001.00,-0.0020
1000.00,-0.0020
999.00,-0.0020
998.00,-0.0020
997.00,-0.0020
996.00,-0.0020
995.00,-0.0020
994.00,-0.0020
993.00,-0.0020
992.00,-0.0020
991.00,-0.0020
990.00,-0.0020
989.00,-0.0020
988.00,-0.0020
987.00,-0.0020
986.00,-0.0020
985.00,-0.0020
984.00,-0.0020
983.00,-0.0020
982.00,-0.0020
981.00,-0.0020
980.00,-0.0020
979.00,-0.0020
978.00,-0.0020
977.00,-0.0020
976.00,-0.0020
975.00,-0.0020
974.00,-0.0020
973.00,-0.0020
972.00,-0.0020
971.00,-0.0020
970.00,-0.0020
969.00,-0.0020
968.00,-0.0020
967.00,-0.0020
966.00,-0.0020
965.00,-0.0020
964.00,-0.0020
963.00,-0.0020
962.00,-0.0020
961.00,-0.0020
960.00,-0.0020
959.00,-0.0020
958.00,-0.0020
957.00,-0.0020
956.00,-0.0020
955.00,-0.0020
954.00,-0.0020
953.00,-0.0020
952.00,-0.0020
951.00,-0.0020
950.00,-0.0020
949.00,-0.0020
948.00,-0.0020
947.00,-0.0020
946.00,-0.0020
945.00,-0.0020
944.00,-0.0020
943.00,-0.0020
942.00,-0.0020
941.00,-0.0020
940.00,-0.0020
939.00,-0.0020
938.00,-0.0020
937.00,-0.0020
936.00,-0.0020
935.00,-0.0020
934.00,-0.0020
933.00,-0.0020
932.00,-0.0020
931.00,-0.0020
930.00,-0.0020
929.00,-0.0020
928.00,-0.0020
927.00,-0.0020
926.00,-0.0020
925.00,-0.0020
924.00,-0.0020
923.00,-0.0020
922.00,-0.0020
921.00,-0.0020
920.00,-0.0020
919.00,-0.0020
918.00,-0.0020
917.00,-0.0020
916.00,-0.0020
915.00,-0.0020
914.00,-0.0021
913.00,-0.0020
912.00,-0.0020
911.00,-0.0020
910.00,-0.0020
909.00,-0.0020
908.00,-0.0020
907.00,-0.0020
906.00,-0.0020
905.00,-0.0020
904.00,-0.0020
903.00,-0.0020
902.00,-0.0020
901.00,-0.0020
900.00,-0.0020
899.00,-0.0020
898.00,-0.0020
897.00,-0.0020
896.00,-0.0020
895.00,-0.0020
894.00,-0.0020
893.00,-0.0020
892.00,-0.0020
891.00,-0.0020
890.00,-0.0021
889.00,-0.0021
888.00,-0.0021
887.00,-0.0020
886.00,-0.0020
885.00,-0.0020
884.00,-0.0020
883.00,-0.0020
882.00,-0.0020
881.00,-0.0020
880.00,-0.0020
879.00,-0.0020
878.00,-0.0020
877.00,-0.0020
876.00,-0.0020
875.00,-0.0020
874.00,-0.0020
873.00,-0.0020
872.00,-0.0020
871.00,-0.0020
870.00,-0.0020
869.00,-0.0020
868.00,-0.0021
867.00,-0.0021
866.00,-0.0021
865.00,-0.0020
864.00,-0.0020
863.00,-0.0020
862.00,-0.0020
861.00,-0.0020
860.00,-0.0020
859.00,-0.0020
858.00,-0.0020
857.00,-0.0020
856.00,-0.0020
855.00,-0.0020
854.00,-0.0020
853.00,-0.0020
852.00,-0.0020
851.00,-0.0020
850.00,-0.0020
849.00,-0.0020
848.00,-0.0020
847.00,-0.0020
846.00,-0.0020
845.00,-0.0020
844.00,-0.0020
843.00,-0.0020
842.00,-0.0020
841.00,-0.0020
840.00,-0.0020
839.00,-0.0020
838.00,-0.0020
837.00,-0.0020
836.00,-0.0020
835.00,-0.0020
834.00,-0.0020
833.00,-0.0020
832.00,-0.0020
831.00,-0.0020
830.00,-0.0020
829.00,-0.0020
828.00,-0.0020
827.00,-0.0020
826.00,-0.0020
825.00,-0.0021
824.00,-0.0021
823.00,-0.0020
822.00,-0.0020
821.00,-0.0020
820.00,-0.0021
819.00,-0.0021
818.00,-0.0021
817.00,-0.0021
816.00,-0.0021
815.00,-0.0021
814.00,-0.0020
813.00,-0.0020
812.00,-0.0020
811.00,-0.0020
810.00,-0.0020
809.00,-0.0020
808.00,-0.0020
807.00,-0.0020
806.00,-0.0020
805.00,-0.0020
804.00,-0.0020
803.00,-0.0020
802.00,-0.0020
801.00,-0.0021
800.00,-0.0021
799.00,-0.0021
798.00,-0.0020
797.00,-0.0020
796.00,-0.0020
795.00,-0.0020
794.00,-0.0020
793.00,-0.0020
792.00,-0.0020
791.00,-0.0020
790.00,-0.0020
789.00,-0.0020
788.00,-0.0020
787.00,-0.0020
786.00,-0.0020
785.00,-0.0020
784.00,-0.0020
783.00,-0.0020
782.00,-0.0020
781.00,-0.0020
780.00,-0.0020
779.00,-0.0020
778.00,-0.0020
777.00,-0.0020
776.00,-0.0020
775.00,-0.0020
774.00,-0.0020
773.00,-0.0020
772.00,-0.0020
771.00,-0.0020
770.00,-0.0021
769.00,-0.0021
768.00,-0.0020
767.00,-0.0020
766.00,-0.0020
765.00,-0.0020
764.00,-0.0020
763.00,-0.0020
762.00,-0.0020
761.00,-0.0020
760.00,-0.0021
759.00,-0.0021
758.00,-0.0021
757.00,-0.0021
756.00,-0.0020
755.00,-0.0020
754.00,-0.0020
753.00,-0.0020
752.00,-0.0020
751.00,-0.0020
750.00,-0.0020
749.00,-0.0020
748.00,-0.0020
747.00,-0.0020
746.00,-0.0020
745.00,-0.0020
744.00,-0.0020
743.00,-0.0020
742.00,-0.0020
741.00,-0.0020
740.00,-0.0020
739.00,-0.0020
738.00,-0.0020
737.00,-0.0020
736.00,-0.0020
735.00,-0.0020
734.00,-0.0020
733.00,-0.0020
732.00,-0.0020
731.00,-0.0020
730.00,-0.0020
729.00,-0.0020
728.00,-0.0020
727.00,-0.0020
726.00,-0.0020
725.00,-0.0020
724.00,-0.0020
723.00,-0.0020
722.00,-0.0020
721.00,-0.0021
720.00,-0.0021
719.00,-0.0020
718.00,-0.0020
717.00,-0.0020
716.00,-0.0020
715.00,-0.0020
714.00,-0.0020
713.00,-0.0020
712.00,-0.0020
711.00,-0.0020
710.00,-0.0021
709.00,-0.0021
708.00,-0.0021
707.00,-0.0021
706.00,-0.0021
705.00,-0.0020
704.00,-0.0020
703.00,-0.0020
702.00,-0.0020
701.00,-0.0020
700.00,-0.0020
699.00,-0.0020
698.00,-0.0020
697.00,-0.0020
696.00,-0.0020
695.00,-0.0020
694.00,-0.0020
693.00,-0.0020
692.00,-0.0019
691.00,-0.0019
690.00,-0.0019
689.00,-0.0019
688.00,-0.0019
687.00,-0.0019
686.00,-0.0019
685.00,-0.0018
684.00,-0.0018
683.00,-0.0018
682.00,-0.0019
681.00,-0.0019
680.00,-0.0019
679.00,-0.0019
678.00,-0.0019
677.00,-0.0019
676.00,-0.0019
675.00,-0.0019
674.00,-0.0019
673.00,-0.0019
672.00,-0.0018
671.00,-0.0016
670.00,-0.0012
669.00,-0.0005
668.00,-0.0000
667.00,-0.0004
666.00,-0.0010
665.00,-0.0015
664.00,-0.0018
663.00,-0.0019
662.00,-0.0020
661.00,-0.0019
660.00,-0.0019
659.00,-0.0019
658.00,-0.0019
657.00,-0.0019
656.00,-0.0019
655.00,-0.0019
654.00,-0.0019
653.00,-0.0019
652.00,-0.0019
651.00,-0.0019
650.00,-0.0019
649.00,-0.0019
648.00,-0.0019
647.00,-0.0020
646.00,-0.0020
645.00,-0.0020
644.00,-0.0020
643.00,-0.0020
642.00,-0.0020
641.00,-0.0020
640.00,-0.0020
639.00,-0.0020
638.00,-0.0020
637.00,-0.0020
636.00,-0.0020
635.00,-0.0021
634.00,-0.0021
633.00,-0.0021
632.00,-0.0021
631.00,-0.0020
630.00,-0.0020
629.00,-0.0020
628.00,-0.0020
627.00,-0.0020
626.00,-0.0020
625.00,-0.0020
624.00,-0.0020
623.00,-0.0020
622.00,-0.0020
621.00,-0.0020
620.00,-0.0021
619.00,-0.0021
618.00,-0.0021
617.00,-0.0021
616.00,-0.0020
615.00,-0.0020
614.00,-0.0020
613.00,-0.0020
612.00,-0.0021
611.00,-0.0021
610.00,-0.0021
609.00,-0.0021
608.00,-0.0020
607.00,-0.0020
606.00,-0.0020
605.00,-0.0019
604.00,-0.0019
603.00,-0.0019
602.00,-0.0020
601.00,-0.0021
600.00,-0.0021
599.00,-0.0021
598.00,-0.0020
597.00,-0.0018
596.00,-0.0018
595.00,-0.0018
594.00,-0.0019
593.00,-0.0019
592.00,-0.0020
591.00,-0.0020
590.00,-0.0020
589.00,-0.0020
588.00,-0.0020
587.00,-0.0020
586.00,-0.0020
585.00,-0.0020
584.00,-0.0020
583.00,-0.0020
582.00,-0.0020
581.00,-0.0020
580.00,-0.0020
579.00,-0.0021
578.00,-0.0021
577.00,-0.0021
576.00,-0.0021
575.00,-0.0020
574.00,-0.0020
573.00,-0.0019
572.00,-0.0019
571.00,-0.0019
570.00,-0.0020
569.00,-0.0020
568.00,-0.0021
567.00,-0.0021
566.00,-0.0021
565.00,-0.0020
564.00,-0.0020
563.00,-0.0020
562.00,-0.0020
561.00,-0.0020
560.00,-0.0021
559.00,-0.0021
558.00,-0.0021
557.00,-0.0020
556.00,-0.0020
555.00,-0.0020
554.00,-0.0020
553.00,-0.0020
552.00,-0.0020
551.00,-0.0020
550.00,-0.0020
549.00,-0.0019
548.00,-0.0019
547.00,-0.0019
546.00,-0.0019
545.00,-0.0020
544.00,-0.0020
543.00,-0.0021
542.00,-0.0021
541.00,-0.0021
540.00,-0.0021
539.00,-0.0021
538.00,-0.0021
537.00,-0.0021
536.00,-0.0020
535.00,-0.0020
534.00,-0.0020
533.00,-0.0020
532.00,-0.0020
531.00,-0.0020
530.00,-0.0020
529.00,-0.0020
528.00,-0.0020
527.00,-0.0020
526.00,-0.0020
525.00,-0.0020
524.00,-0.0020
523.00,-0.0020
522.00,-0.0020
521.00,-0.0020
520.00,-0.0020
519.00,-0.0021
518.00,-0.0021
517.00,-0.0021
516.00,-0.0021
515.00,-0.0021
514.00,-0.0020
513.00,-0.0020
512.00,-0.0020
511.00,-0.0020
510.00,-0.0020
509.00,-0.0021
508.00,-0.0021
507.00,-0.0020
506.00,-0.0020
505.00,-0.0020
504.00,-0.0021
503.00,-0.0022
502.00,-0.0022
501.00,-0.0023
500.00,-0.0023
