Created as New Dataset,Sample 012 By Analyst Date Thursday, March 27 2025
cm-1,A
4000.00,-0.0019
3999.00,-0.0019
3998.00,-0.0019
3997.00,-0.0019
3996.00,-0.0019
3995.00,-0.0019
3994.00,-0.0019
3993.00,-0.0019
3992.00,-0.0019
3991.00,-0.0019
3990.00,-0.0019
3989.00,-0.0019
3988.00,-0.0019
3987.00,-0.0019
3986.00,-0.0019
3985.00,-0.0019
3984.00,-0.0019
3983.00,-0.0019
3982.00,-0.0019
3981.00,-0.0019
3980.00,-0.0019
3979.00,-0.0019
3978.00,-0.0019
3977.00,-0.0019
3976.00,-0.0019
3975.00,-0.0019
3974.00,-0.0019
3973.00,-0.0019
3972.00,-0.0019
3971.00,-0.0019
3970.00,-0.0019
3969.00,-0.0019
3968.00,-0.0019
3967.00,-0.0019
3966.00,-0.0019
3965.00,-0.0019
3964.00,-0.0019
3963.00,-0.0019
3962.00,-0.0019
3961.00,-0.0019
3960.00,-0.0019
3959.00,-0.0019
3958.00,-0.0019
3957.00,-0.0019
3956.00,-0.0019
3955.00,-0.0019
3954.00,-0.0019
3953.00,-0.0019
3952.00,-0.0019
3951.00,-0.0019
3950.00,-0.0019
3949.00,-0.0019
3948.00,-0.0019
3947.00,-0.0019
3946.00,-0.0018
3945.00,-0.0018
3944.00,-0.0018
3943.00,-0.0018
3942.00,-0.0018
3941.00,-0.0018
3940.00,-0.0018
3939.00,-0.0018
3938.00,-0.0018
3937.00,-0.0018
3936.00,-0.0018
3935.00,-0.0018
3934.00,-0.0018
3933.00,-0.0018
3932.00,-0.0018
3931.00,-0.0018
3930.00,-0.0018
3929.00,-0.0018
3928.00,-0.0018
3927.00,-0.0018
3926.00,-0.0018
3925.00,-0.0018
3924.00,-0.0018
3923.00,-0.0018
3922.00,-0.0018
3921.00,-0.0018
3920.00,-0.0018
3919.00,-0.0018
3918.00,-0.0018
3917.00,-0.0018
3916.00,-0.0018
3915.00,-0.0018
3914.00,-0.0018
3913.00,-0.0018
3912.00,-0.0018
3911.00,-0.0018
3910.00,-0.0019
3909.00,-0.0019
3908.00,-0.0019
3907.00,-0.0019
3906.00,-0.0019
3905.00,-0.0019
3904.00,-0.0019
3903.00,-0.0019
3902.00,-0.0018
3901.00,-0.0018
3900.00,-0.0018
3899.00,-0.0018
3898.00,-0.0018
3897.00,-0.0018
3896.00,-0.0018
3895.00,-0.0018
3894.00,-0.0018
3893.00,-0.0018
3892.00,-0.0018
3891.00,-0.0018
3890.00,-0.0018
3889.00,-0.0018
3888.00,-0.0018
3887.00,-0.0018
3886.00,-0.0018
3885.00,-0.0018
3884.00,-0.0018
3883.00,-0.0018
3882.00,-0.0018
3881.00,-0.0018
3880.00,-0.0018
3879.00,-0.0018
3878.00,-0.0018
3877.00,-0.0018
3876.00,-0.0018
3875.00,-0.0018
3874.00,-0.0018
3873.00,-0.0018
3872.00,-0.0018
3871.00,-0.0018
3870.00,-0.0018
3869.00,-0.0018
3868.00,-0.0018
3867.00,-0.0018
3866.00,-0.0018
3865.00,-0.0018
3864.00,-0.0018
3863.00,-0.0018
3862.00,-0.0018
3861.00,-0.0018
3860.00,-0.0018
3859.00,-0.0018
3858.00,-0.0019
3857.00,-0.0019
3856.00,-0.0019
3855.00,-0.0018
3854.00,-0.0018
3853.00,-0.0018
3852.00,-0.0018
3851.00,-0.0018
3850.00,-0.0017
3849.00,-0.0017
3848.00,-0.0017
3847.00,-0.0018
3846.00,-0.0018
3845.00,-0.0018
3844.00,-0.0018
3843.00,-0.0019
3842.00,-0.0019
3841.00,-0.0019
3840.00,-0.0018
3839.00,-0.0018
3838.00,-0.0018
3837.00,-0.0018
3836.00,-0.0018
3835.00,-0.0018
3834.00,-0.0018
3833.00,-0.0018
3832.00,-0.0018
3831.00,-0.0018
3830.00,-0.0018
3829.00,-0.0018
3828.00,-0.0018
3827.00,-0.0018
3826.00,-0.0018
3825.00,-0.0018
3824.00,-0.0018
3823.00,-0.0018
3822.00,-0.0018
3821.00,-0.0018
3820.00,-0.0018
3819.00,-0.0019
3818.00,-0.0018
3817.00,-0.0018
3816.00,-0.0018
3815.00,-0.0018
3814.00,-0.0018
3813.00,-0.0018
3812.00,-0.0018
3811.00,-0.0018
3810.00,-0.0018
3809.00,-0.0018
3808.00,-0.0019
3807.00,-0.0019
3806.00,-0.0019
3805.00,-0.0019
3804.00,-0.0019
3803.00,-0.0018
3802.00,-0.0018
3801.00,-0.0018
3800.00,-0.0019
3799.00,-0.0019
3798.00,-0.0018
3797.00,-0.0018
3796.00,-0.0018
3795.00,-0.0018
3794.00,-0.0018
3793.00,-0.0018
3792.00,-0.0018
3791.00,-0.0018
3790.00,-0.0018
3789.00,-0.0019
3788.00,-0.0019
3787.00,-0.0019
3786.00,-0.0019
3785.00,-0.0019
3784.00,-0.0019
3783.00,-0.0019
3782.00,-0.0019
3781.00,-0.0018
3780.00,-0.0018
3779.00,-0.0018
3778.00,-0.0018
3777.00,-0.0018
3776.00,-0.0018
3775.00,-0.0018
3774.00,-0.0018
3773.00,-0.0018
3772.00,-0.0018
3771.00,-0.0019
3770.00,-0.0019
3769.00,-0.0019
3768.00,-0.0019
3767.00,-0.0018
3766.00,-0.0018
3765.00,-0.0018
3764.00,-0.0018
3763.00,-0.0018
3762.00,-0.0018
3761.00,-0.0018
3760.00,-0.0018
3759.00,-0.0019
3758.00,-0.0019
3757.00,-0.0019
3756.00,-0.0019
3755.00,-0.0019
3754.00,-0.0019
3753.00,-0.0019
3752.00,-0.0019
3751.00,-0.0019
3750.00,-0.0019
3749.00,-0.0019
3748.00,-0.0018
3747.00,-0.0018
3746.00,-0.0017
3745.00,-0.0017
3744.00,-0.0017
3743.00,-0.0018
3742.00,-0.0018
3741.00,-0.0018
3740.00,-0.0018
3739.00,-0.0018
3738.00,-0.0018
3737.00,-0.0018
3736.00,-0.0018
3735.00,-0.0018
3734.00,-0.0017
3733.00,-0.0017
3732.00,-0.0017
3731.00,-0.0017
3730.00,-0.0017
3729.00,-0.0018
3728.00,-0.0018
3727.00,-0.0018
3726.00,-0.0018
3725.00,-0.0018
3724.00,-0.0018
3723.00,-0.0018
3722.00,-0.0018
3721.00,-0.0018
3720.00,-0.0018
3719.00,-0.0018
3718.00,-0.0018
3717.00,-0.0018
3716.00,-0.0019
3715.00,-0.0019
3714.00,-0.0019
3713.00,-0.0019
3712.00,-0.0019
3711.00,-0.0019
3710.00,-0.0018
3709.00,-0.0018
3708.00,-0.0018
3707.00,-0.0018
3706.00,-0.0018
3705.00,-0.0018
3704.00,-0.0018
3703.00,-0.0018
3702.00,-0.0018
3701.00,-0.0018
3700.00,-0.0018
3699.00,-0.0018
3698.00,-0.0018
3697.00,-0.0019
3696.00,-0.0019
3695.00,-0.0019
3694.00,-0.0019
3693.00,-0.0019
3692.00,-0.0019
3691.00,-0.0019
3690.00,-0.0018
3689.00,-0.0018
3688.00,-0.0018
3687.00,-0.0018
3686.00,-0.0018
3685.00,-0.0018
3684.00,-0.0018
3683.00,-0.0018
3682.00,-0.0019
3681.00,-0.0019
3680.00,-0.0019
3679.00,-0.0019
3678.00,-0.0019
3677.00,-0.0019
3676.00,-0.0018
3675.00,-0.0018
3674.00,-0.0018
3673.00,-0.0018
3672.00,-0.0017
3671.00,-0.0017
3670.00,-0.0017
3669.00,-0.0017
3668.00,-0.0018
3667.00,-0.0017
3666.00,-0.0017
3665.00,-0.0017
3664.00,-0.0018
3663.00,-0.0018
3662.00,-0.0018
3661.00,-0.0018
3660.00,-0.0018
3659.00,-0.0018
3658.00,-0.0018
3657.00,-0.0018
3656.00,-0.0018
3655.00,-0.0019
3654.00,-0.0019
3653.00,-0.0019
3652.00,-0.0018
3651.00,-0.0018
3650.00,-0.0018
3649.00,-0.0018
3648.00,-0.0018
3647.00,-0.0018
3646.00,-0.0017
3645.00,-0.0017
3644.00,-0.0018
3643.00,-0.0018
3642.00,-0.0018
3641.00,-0.0018
3640.00,-0.0019
3639.00,-0.0019
3638.00,-0.0019
3637.00,-0.0019
3636.00,-0.0019
3635.00,-0.0019
3634.00,-0.0019
3633.00,-0.0019
3632.00,-0.0019
3631.00,-0.0018
3630.00,-0.0018
3629.00,-0.0018
3628.00,-0.0018
3627.00,-0.0018
3626.00,-0.0017
3625.00,-0.0017
3624.00,-0.0017
3623.00,-0.0017
3622.00,-0.0017
3621.00,-0.0017
3620.00,-0.0017
3619.00,-0.0018
3618.00,-0.0018
3617.00,-0.0018
3616.00,-0.0018
3615.00,-0.0018
3614.00,-0.0018
3613.00,-0.0018
3612.00,-0.0018
3611.00,-0.0018
3610.00,-0.0018
3609.00,-0.0018
3608.00,-0.0018
3607.00,-0.0018
3606.00,-0.0018
3605.00,-0.0018
3604.00,-0.0018
3603.00,-0.0018
3602.00,-0.0018
3601.00,-0.0018
3600.00,-0.0018
3599.00,-0.0019
3598.00,-0.0018
3597.00,-0.0018
3596.00,-0.0018
3595.00,-0.0018
3594.00,-0.0018
3593.00,-0.0019
3592.00,-0.0019
3591.00,-0.0019
3590.00,-0.0019
3589.00,-0.0018
3588.00,-0.0018
3587.00,-0.0018
3586.00,-0.0018
3585.00,-0.0018
3584.00,-0.0018
3583.00,-0.0018
3582.00,-0.0018
3581.00,-0.0018
3580.00,-0.0018
3579.00,-0.0018
3578.00,-0.0019
3577.00,-0.0019
3576.00,-0.0018
3575.00,-0.0018
3574.00,-0.0018
3573.00,-0.0018
3572.00,-0.0018
3571.00,-0.0018
3570.00,-0.0018
3569.00,-0.0018
3568.00,-0.0018
3567.00,-0.0018
3566.00,-0.0018
3565.00,-0.0018
3564.00,-0.0018
3563.00,-0.0018
3562.00,-0.0018
3561.00,-0.0018
3560.00,-0.0018
3559.00,-0.0018
3558.00,-0.0018
3557.00,-0.0018
3556.00,-0.0018
3555.00,-0.0018
3554.00,-0.0018
3553.00,-0.0018
3552.00,-0.0018
3551.00,-0.0018
3550.00,-0.0018
3549.00,-0.0018
3548.00,-0.0018
3547.00,-0.0018
3546.00,-0.0018
3545.00,-0.0018
3544.00,-0.0018
3543.00,-0.0018
3542.00,-0.0018
3541.00,-0.0018
3540.00,-0.0018
3539.00,-0.0018
3538.00,-0.0019
3537.00,-0.0019
3536.00,-0.0019
3535.00,-0.0019
3534.00,-0.0019
3533.00,-0.0019
3532.00,-0.0019
3531.00,-0.0019
3530.00,-0.0019
3529.00,-0.0019
3528.00,-0.0019
3527.00,-0.0019
3526.00,-0.0019
3525.00,-0.0019
3524.00,-0.0018
3523.00,-0.0018
3522.00,-0.0018
3521.00,-0.0018
3520.00,-0.0018
3519.00,-0.0018
3518.00,-0.0018
3517.00,-0.0018
3516.00,-0.0018
3515.00,-0.0018
3514.00,-0.0019
3513.00,-0.0019
3512.00,-0.0019
3511.00,-0.0018
3510.00,-0.0018
3509.00,-0.0018
3508.00,-0.0018
3507.00,-0.0018
3506.00,-0.0018
3505.00,-0.0018
3504.00,-0.0018
3503.00,-0.0018
3502.00,-0.0018
3501.00,-0.0018
3500.00,-0.0018
3499.00,-0.0018
3498.00,-0.0018
3497.00,-0.0018
3496.00,-0.0018
3495.00,-0.0018
3494.00,-0.0018
3493.00,-0.0019
3492.00,-0.0019
3491.00,-0.0019
3490.00,-0.0019
3489.00,-0.0019
3488.00,-0.0019
3487.00,-0.0019
3486.00,-0.0019
3485.00,-0.0019
3484.00,-0.0019
3483.00,-0.0019
3482.00,-0.0018
3481.00,-0.0019
3480.00,-0.0019
3479.00,-0.0019
3478.00,-0.0019
3477.00,-0.0019
3476.00,-0.0019
3475.00,-0.0019
3474.00,-0.0019
3473.00,-0.0019
3472.00,-0.0019
3471.00,-0.0019
3470.00,-0.0019
3469.00,-0.0019
3468.00,-0.0019
3467.00,-0.0019
3466.00,-0.0019
3465.00,-0.0018
3464.00,-0.0018
3463.00,-0.0018
3462.00,-0.0018
3461.00,-0.0018
3460.00,-0.0018
3459.00,-0.0018
3458.00,-0.0018
3457.00,-0.0018
3456.00,-0.0018
3455.00,-0.0018
3454.00,-0.0018
3453.00,-0.0018
3452.00,-0.0018
3451.00,-0.0018
3450.00,-0.0018
3449.00,-0.0018
3448.00,-0.0018
3447.00,-0.0018
3446.00,-0.0018
3445.00,-0.0018
3444.00,-0.0018
3443.00,-0.0019
3442.00,-0.0019
3441.00,-0.0019
3440.00,-0.0019
3439.00,-0.0019
3438.00,-0.0019
3437.00,-0.0019
3436.00,-0.0019
3435.00,-0.0019
3434.00,-0.0019
3433.00,-0.0019
3432.00,-0.0019
3431.00,-0.0019
3430.00,-0.0019
3429.00,-0.0019
3428.00,-0.0019
3427.00,-0.0019
3426.00,-0.0019
3425.00,-0.0019
3424.00,-0.0019
3423.00,-0.0019
3422.00,-0.0019
3421.00,-0.0019
3420.00,-0.0019
3419.00,-0.0018
3418.00,-0.0018
3417.00,-0.0018
3416.00,-0.0019
3415.00,-0.0019
3414.00,-0.0018
3413.00,-0.0018
3412.00,-0.0018
3411.00,-0.0018
3410.00,-0.0018
3409.00,-0.0018
3408.00,-0.0018
3407.00,-0.0019
3406.00,-0.0019
3405.00,-0.0018
3404.00,-0.0018
3403.00,-0.0018
3402.00,-0.0018
3401.00,-0.0018
3400.00,-0.0018
3399.00,-0.0018
3398.00,-0.0018
3397.00,-0.0018
3396.00,-0.0018
3395.00,-0.0018
3394.00,-0.0018
3393.00,-0.0018
3392.00,-0.0018
3391.00,-0.0018
3390.00,-0.0018
3389.00,-0.0018
3388.00,-0.0018
3387.00,-0.0018
3386.00,-0.0018
3385.00,-0.0018
3384.00,-0.0018
3383.00,-0.0018
3382.00,-0.0019
3381.00,-0.0019
3380.00,-0.0019
3379.00,-0.0019
3378.00,-0.0019
3377.00,-0.0019
3376.00,-0.0018
3375.00,-0.0018
3374.00,-0.0018
3373.00,-0.0018
3372.00,-0.0018
3371.00,-0.0018
3370.00,-0.0018
3369.00,-0.0018
3368.00,-0.0019
3367.00,-0.0019
3366.00,-0.0018
3365.00,-0.0018
3364.00,-0.0018
3363.00,-0.0018
3362.00,-0.0018
3361.00,-0.0018
3360.00,-0.0018
3359.00,-0.0018
3358.00,-0.0018
3357.00,-0.0018
3356.00,-0.0018
3355.00,-0.0018
3354.00,-0.0018
3353.00,-0.0018
3352.00,-0.0018
3351.00,-0.0018
3350.00,-0.0018
3349.00,-0.0018
3348.00,-0.0018
3347.00,-0.0018
3346.00,-0.0018
3345.00,-0.0018
3344.00,-0.0018
3343.00,-0.0018
3342.00,-0.0019
3341.00,-0.0019
3340.00,-0.0018
3339.00,-0.0018
3338.00,-0.0018
3337.00,-0.0018
3336.00,-0.0018
3335.00,-0.0018
3334.00,-0.0018
3333.00,-0.0018
3332.00,-0.0019
3331.00,-0.0019
3330.00,-0.0019
3329.00,-0.0019
3328.00,-0.0019
3327.00,-0.0019
3326.00,-0.0019
3325.00,-0.0019
3324.00,-0.0019
3323.00,-0.0019
3322.00,-0.0019
3321.00,-0.0019
3320.00,-0.0019
3319.00,-0.0019
3318.00,-0.0018
3317.00,-0.0018
3316.00,-0.0019
3315.00,-0.0019
3314.00,-0.0019
3313.00,-0.0019
3312.00,-0.0018
3311.00,-0.0018
3310.00,-0.0018
3309.00,-0.0018
3308.00,-0.0018
3307.00,-0.0018
3306.00,-0.0018
3305.00,-0.0018
3304.00,-0.0018
3303.00,-0.0018
3302.00,-0.0018
3301.00,-0.0018
3300.00,-0.0018
3299.00,-0.0018
3298.00,-0.0018
3297.00,-0.0018
3296.00,-0.0018
3295.00,-0.0018
3294.00,-0.0018
3293.00,-0.0018
3292.00,-0.0018
3291.00,-0.0018
3290.00,-0.0018
3289.00,-0.0018
3288.00,-0.0018
3287.00,-0.0018
3286.00,-0.0018
3285.00,-0.0018
3284.00,-0.0018
3283.00,-0.0018
3282.00,-0.0019
3281.00,-0.0019
3280.00,-0.0019
3279.00,-0.0019
3278.00,-0.0019
3277.00,-0.0019
3276.00,-0.0019
3275.00,-0.0019
3274.00,-0.0019
3273.00,-0.0019
3272.00,-0.0019
3271.00,-0.0019
3270.00,-0.0019
3269.00,-0.0019
3268.00,-0.0019
3267.00,-0.0019
3266.00,-0.0019
3265.00,-0.0019
3264.00,-0.0018
3263.00,-0.0018
3262.00,-0.0018
3261.00,-0.0018
3260.00,-0.0018
3259.00,-0.0018
3258.00,-0.0018
3257.00,-0.0018
3256.00,-0.0018
3255.00,-0.0018
3254.00,-0.0018
3253.00,-0.0018
3252.00,-0.0018
3251.00,-0.0018
3250.00,-0.0018
3249.00,-0.0018
3248.00,-0.0018
3247.00,-0.0018
3246.00,-0.0018
3245.00,-0.0018
3244.00,-0.0018
3243.00,-0.0018
3242.00,-0.0018
3241.00,-0.0018
3240.00,-0.0018
3239.00,-0.0018
3238.00,-0.0018
3237.00,-0.0018
3236.00,-0.0018
3235.00,-0.0018
3234.00,-0.0018
3233.00,-0.0018
3232.00,-0.0018
3231.00,-0.0018
3230.00,-0.0018
3229.00,-0.0018
3228.00,-0.0018
3227.00,-0.0018
3226.00,-0.0018
3225.00,-0.0018
3224.00,-0.0019
3223.00,-0.0019
3222.00,-0.0019
3221.00,-0.0019
3220.00,-0.0019
3219.00,-0.0019
3218.00,-0.0019
3217.00,-0.0019
3216.00,-0.0018
3215.00,-0.0018
3214.00,-0.0018
3213.00,-0.0018
3212.00,-0.0018
3211.00,-0.0018
3210.00,-0.0018
3209.00,-0.0018
3208.00,-0.0018
3207.00,-0.0018
3206.00,-0.0018
3205.00,-0.0018
3204.00,-0.0018
3203.00,-0.0018
3202.00,-0.0018
3201.00,-0.0018
3200.00,-0.0018
3199.00,-0.0018
3198.00,-0.0018
3197.00,-0.0018
3196.00,-0.0018
3195.00,-0.0018
3194.00,-0.0018
3193.00,-0.0018
3192.00,-0.0018
3191.00,-0.0018
3190.00,-0.0018
3189.00,-0.0018
3188.00,-0.0018
3187.00,-0.0018
3186.00,-0.0018
3185.00,-0.0018
3184.00,-0.0018
3183.00,-0.0018
3182.00,-0.0018
3181.00,-0.0018
3180.00,-0.0018
3179.00,-0.0018
3178.00,-0.0018
3177.00,-0.0018
3176.00,-0.0018
3175.00,-0.0018
3174.00,-0.0018
3173.00,-0.0018
3172.00,-0.0018
3171.00,-0.0018
3170.00,-0.0018
3169.00,-0.0018
3168.00,-0.0018
3167.00,-0.0018
3166.00,-0.0018
3165.00,-0.0019
3164.00,-0.0019
3163.00,-0.0019
3162.00,-0.0019
3161.00,-0.0019
3160.00,-0.0019
3159.00,-0.0019
3158.00,-0.0019
3157.00,-0.0019
3156.00,-0.0019
3155.00,-0.0018
3154.00,-0.0018
3153.00,-0.0018
3152.00,-0.0018
3151.00,-0.0018
3150.00,-0.0018
3149.00,-0.0018
3148.00,-0.0018
3147.00,-0.0018
3146.00,-0.0018
3145.00,-0.0018
3144.00,-0.0018
3143.00,-0.0018
3142.00,-0.0018
3141.00,-0.0018
3140.00,-0.0018
3139.00,-0.0018
3138.00,-0.0018
3137.00,-0.0018
3136.00,-0.0018
3135.00,-0.0018
3134.00,-0.0018
3133.00,-0.0018
3132.00,-0.0018
3131.00,-0.0018
3130.00,-0.0018
3129.00,-0.0018
3128.00,-0.0018
3127.00,-0.0018
3126.00,-0.0018
3125.00,-0.0018
3124.00,-0.0018
3123.00,-0.0018
3122.00,-0.0018
3121.00,-0.0018
3120.00,-0.0018
3119.00,-0.0018
3118.00,-0.0018
3117.00,-0.0018
3116.00,-0.0018
3115.00,-0.0018
3114.00,-0.0018
3113.00,-0.0018
3112.00,-0.0018
3111.00,-0.0018
3110.00,-0.0018
3109.00,-0.0018
3108.00,-0.0019
3107.00,-0.0019
3106.00,-0.0019
3105.00,-0.0019
3104.00,-0.0019
3103.00,-0.0018
3102.00,-0.0018
3101.00,-0.0018
3100.00,-0.0018
3099.00,-0.0018
3098.00,-0.0018
3097.00,-0.0018
3096.00,-0.0018
3095.00,-0.0018
3094.00,-0.0018
3093.00,-0.0018
3092.00,-0.0018
3091.00,-0.0018
3090.00,-0.0018
3089.00,-0.0018
3088.00,-0.0018
3087.00,-0.0018
3086.00,-0.0018
3085.00,-0.0018
3084.00,-0.0018
3083.00,-0.0018
3082.00,-0.0018
3081.00,-0.0018
3080.00,-0.0018
3079.00,-0.0018
3078.00,-0.0018
3077.00,-0.0018
3076.00,-0.0018
3075.00,-0.0018
3074.00,-0.0018
3073.00,-0.0018
3072.00,-0.0018
3071.00,-0.0018
3070.00,-0.0018
3069.00,-0.0018
3068.00,-0.0018
3067.00,-0.0019
3066.00,-0.0019
3065.00,-0.0019
3064.00,-0.0018
3063.00,-0.0018
3062.00,-0.0018
3061.00,-0.0018
3060.00,-0.0018
3059.00,-0.0019
3058.00,-0.0019
3057.00,-0.0018
3056.00,-0.0018
3055.00,-0.0018
3054.00,-0.0018
3053.00,-0.0018
3052.00,-0.0018
3051.00,-0.0018
3050.00,-0.0018
3049.00,-0.0018
3048.00,-0.0018
3047.00,-0.0018
3046.00,-0.0018
3045.00,-0.0018
3044.00,-0.0018
3043.00,-0.0018
3042.00,-0.0018
3041.00,-0.0018
3040.00,-0.0018
3039.00,-0.0018
3038.00,-0.0018
3037.00,-0.0018
3036.00,-0.0018
3035.00,-0.0018
3034.00,-0.0018
3033.00,-0.0018
3032.00,-0.0018
3031.00,-0.0018
3030.00,-0.0018
3029.00,-0.0018
3028.00,-0.0018
3027.00,-0.0018
3026.00,-0.0018
3025.00,-0.0018
3024.00,-0.0018
3023.00,-0.0018
3022.00,-0.0018
3021.00,-0.0018
3020.00,-0.0018
3019.00,-0.0018
3018.00,-0.0018
3017.00,-0.0018
3016.00,-0.0018
3015.00,-0.0018
3014.00,-0.0018
3013.00,-0.0018
3012.00,-0.0018
3011.00,-0.0018
3010.00,-0.0018
3009.00,-0.0018
3008.00,-0.0018
3007.00,-0.0018
3006.00,-0.0019
3005.00,-0.0019
3004.00,-0.0019
3003.00,-0.0018
3002.00,-0.0018
3001.00,-0.0018
3000.00,-0.0018
2999.00,-0.0018
2998.00,-0.0018
2997.00,-0.0018
2996.00,-0.0018
2995.00,-0.0018
2994.00,-0.0018
2993.00,-0.0018
2992.00,-0.0018
2991.00,-0.0018
2990.00,-0.0018
2989.00,-0.0018
2988.00,-0.0018
2987.00,-0.0018
2986.00,-0.0018
2985.00,-0.0018
2984.00,-0.0018
2983.00,-0.0018
2982.00,-0.0018
2981.00,-0.0018
2980.00,-0.0018
2979.00,-0.0018
2978.00,-0.0018
2977.00,-0.0018
2976.00,-0.0018
2975.00,-0.0018
2974.00,-0.0018
2973.00,-0.0018
2972.00,-0.0018
2971.00,-0.0018
2970.00,-0.0018
2969.00,-0.0018
2968.00,-0.0018
2967.00,-0.0019
2966.00,-0.0019
2965.00,-0.0019
2964.00,-0.0019
2963.00,-0.0019
2962.00,-0.0019
2961.00,-0.0019
2960.00,-0.0019
2959.00,-0.0019
2958.00,-0.0019
2957.00,-0.0019
2956.00,-0.0018
2955.00,-0.0018
2954.00,-0.0018
2953.00,-0.0018
2952.00,-0.0018
2951.00,-0.0018
2950.00,-0.0018
2949.00,-0.0019
2948.00,-0.0019
2947.00,-0.0019
2946.00,-0.0019
2945.00,-0.0018
2944.00,-0.0018
2943.00,-0.0018
2942.00,-0.0018
2941.00,-0.0018
2940.00,-0.0018
2939.00,-0.0018
2938.00,-0.0018
2937.00,-0.0018
2936.00,-0.0018
2935.00,-0.0018
2934.00,-0.0018
2933.00,-0.0018
2932.00,-0.0018
2931.00,-0.0018
2930.00,-0.0018
2929.00,-0.0018
2928.00,-0.0018
2927.00,-0.0018
2926.00,-0.0018
2925.00,-0.0018
2924.00,-0.0018
2923.00,-0.0018
2922.00,-0.0018
2921.00,-0.0018
2920.00,-0.0018
2919.00,-0.0018
2918.00,-0.0018
2917.00,-0.0018
2916.00,-0.0018
2915.00,-0.0018
2914.00,-0.0018
2913.00,-0.0018
2912.00,-0.0018
2911.00,-0.0018
2910.00,-0.0018
2909.00,-0.0018
2908.00,-0.0019
2907.00,-0.0019
2906.00,-0.0019
2905.00,-0.0019
2904.00,-0.0019
2903.00,-0.0019
2902.00,-0.0019
2901.00,-0.0019
2900.00,-0.0019
2899.00,-0.0019
2898.00,-0.0019
2897.00,-0.0019
2896.00,-0.0018
2895.00,-0.0018
2894.00,-0.0018
2893.00,-0.0018
2892.00,-0.0018
2891.00,-0.0018
2890.00,-0.0018
2889.00,-0.0018
2888.00,-0.0018
2887.00,-0.0018
2886.00,-0.0018
2885.00,-0.0018
2884.00,-0.0018
2883.00,-0.0018
2882.00,-0.0018
2881.00,-0.0018
2880.00,-0.0018
2879.00,-0.0018
2878.00,-0.0018
2877.00,-0.0018
2876.00,-0.0018
2875.00,-0.0018
2874.00,-0.0018
2873.00,-0.0018
2872.00,-0.0018
2871.00,-0.0018
2870.00,-0.0018
2869.00,-0.0018
2868.00,-0.0018
2867.00,-0.0018
2866.00,-0.0018
2865.00,-0.0018
2864.00,-0.0018
2863.00,-0.0018
2862.00,-0.0018
2861.00,-0.0018
2860.00,-0.0018
2859.00,-0.0018
2858.00,-0.0018
2857.00,-0.0018
2856.00,-0.0019
2855.00,-0.0019
2854.00,-0.0019
2853.00,-0.0019
2852.00,-0.0019
2851.00,-0.0019
2850.00,-0.0019
2849.00,-0.0019
2848.00,-0.0019
2847.00,-0.0019
2846.00,-0.0018
2845.00,-0.0018
2844.00,-0.0018
2843.00,-0.0018
2842.00,-0.0018
2841.00,-0.0018
2840.00,-0.0018
2839.00,-0.0018
2838.00,-0.0018
2837.00,-0.0018
2836.00,-0.0018
2835.00,-0.0018
2834.00,-0.0018
2833.00,-0.0018
2832.00,-0.0018
2831.00,-0.0018
2830.00,-0.0018
2829.00,-0.0018
2828.00,-0.0018
2827.00,-0.0018
2826.00,-0.0018
2825.00,-0.0018
2824.00,-0.0018
2823.00,-0.0018
2822.00,-0.0018
2821.00,-0.0018
2820.00,-0.0018
2819.00,-0.0018
2818.00,-0.0018
2817.00,-0.0018
2816.00,-0.0018
2815.00,-0.0018
2814.00,-0.0018
2813.00,-0.0018
2812.00,-0.0018
2811.00,-0.0018
2810.00,-0.0018
2809.00,-0.0018
2808.00,-0.0018
2807.00,-0.0018
2806.00,-0.0018
2805.00,-0.0019
2804.00,-0.0019
2803.00,-0.0019
2802.00,-0.0019
2801.00,-0.0019
2800.00,-0.0019
2799.00,-0.0019
2798.00,-0.0019
2797.00,-0.0019
2796.00,-0.0019
2795.00,-0.0018
2794.00,-0.0018
2793.00,-0.0018
2792.00,-0.0018
2791.00,-0.0018
2790.00,-0.0018
2789.00,-0.0018
2788.00,-0.0018
2787.00,-0.0018
2786.00,-0.0018
2785.00,-0.0018
2784.00,-0.0018
2783.00,-0.0018
2782.00,-0.0018
2781.00,-0.0018
2780.00,-0.0018
2779.00,-0.0018
2778.00,-0.0018
2777.00,-0.0018
2776.00,-0.0018
2775.00,-0.0018
2774.00,-0.0018
2773.00,-0.0018
2772.00,-0.0018
2771.00,-0.0018
2770.00,-0.0018
2769.00,-0.0018
2768.00,-0.0018
2767.00,-0.0018
2766.00,-0.0018
2765.00,-0.0018
2764.00,-0.0018
2763.00,-0.0018
2762.00,-0.0018
2761.00,-0.0018
2760.00,-0.0018
2759.00,-0.0018
2758.00,-0.0018
2757.00,-0.0018
2756.00,-0.0018
2755.00,-0.0018
2754.00,-0.0018
2753.00,-0.0018
2752.00,-0.0018
2751.00,-0.0018
2750.00,-0.0018
2749.00,-0.0018
2748.00,-0.0018
2747.00,-0.0018
2746.00,-0.0018
2745.00,-0.0018
2744.00,-0.0018
2743.00,-0.0018
2742.00,-0.0018
2741.00,-0.0018
2740.00,-0.0018
2739.00,-0.0018
2738.00,-0.0018
2737.00,-0.0018
2736.00,-0.0018
2735.00,-0.0018
2734.00,-0.0018
2733.00,-0.0018
2732.00,-0.0018
2731.00,-0.0018
2730.00,-0.0018
2729.00,-0.0018
2728.00,-0.0018
2727.00,-0.0018
2726.00,-0.0018
2725.00,-0.0018
2724.00,-0.0018
2723.00,-0.0018
2722.00,-0.0018
2721.00,-0.0018
2720.00,-0.0018
2719.00,-0.0018
2718.00,-0.0018
2717.00,-0.0018
2716.00,-0.0018
2715.00,-0.0018
2714.00,-0.0018
2713.00,-0.0018
2712.00,-0.0018
2711.00,-0.0018
2710.00,-0.0018
2709.00,-0.0018
2708.00,-0.0018
2707.00,-0.0018
2706.00,-0.0018
2705.00,-0.0018
2704.00,-0.0018
2703.00,-0.0018
2702.00,-0.0018
2701.00,-0.0018
2700.00,-0.0018
2699.00,-0.0018
2698.00,-0.0018
2697.00,-0.0018
2696.00,-0.0018
2695.00,-0.0018
2694.00,-0.0018
2693.00,-0.0018
2692.00,-0.0019
2691.00,-0.0019
2690.00,-0.0019
2689.00,-0.0018
2688.00,-0.0018
2687.00,-0.0018
2686.00,-0.0018
2685.00,-0.0018
2684.00,-0.0018
2683.00,-0.0018
2682.00,-0.0018
2681.00,-0.0018
2680.00,-0.0019
2679.00,-0.0019
2678.00,-0.0019
2677.00,-0.0019
2676.00,-0.0019
2675.00,-0.0018
2674.00,-0.0018
2673.00,-0.0018
2672.00,-0.0018
2671.00,-0.0018
2670.00,-0.0018
2669.00,-0.0018
2668.00,-0.0018
2667.00,-0.0018
2666.00,-0.0018
2665.00,-0.0018
2664.00,-0.0018
2663.00,-0.0018
2662.00,-0.0018
2661.00,-0.0018
2660.00,-0.0018
2659.00,-0.0018
2658.00,-0.0018
2657.00,-0.0018
2656.00,-0.0018
2655.00,-0.0018
2654.00,-0.0018
2653.00,-0.0018
2652.00,-0.0018
2651.00,-0.0018
2650.00,-0.0018
2649.00,-0.0018
2648.00,-0.0018
2647.00,-0.0018
2646.00,-0.0018
2645.00,-0.0019
2644.00,-0.0019
2643.00,-0.0019
2642.00,-0.0019
2641.00,-0.0019
2640.00,-0.0019
2639.00,-0.0019
2638.00,-0.0019
2637.00,-0.0019
2636.00,-0.0019
2635.00,-0.0019
2634.00,-0.0019
2633.00,-0.0019
2632.00,-0.0019
2631.00,-0.0019
2630.00,-0.0019
2629.00,-0.0019
2628.00,-0.0019
2627.00,-0.0019
2626.00,-0.0019
2625.00,-0.0019
2624.00,-0.0018
2623.00,-0.0018
2622.00,-0.0018
2621.00,-0.0018
2620.00,-0.0018
2619.00,-0.0018
2618.00,-0.0018
2617.00,-0.0018
2616.00,-0.0018
2615.00,-0.0018
2614.00,-0.0018
2613.00,-0.0018
2612.00,-0.0018
2611.00,-0.0018
2610.00,-0.0018
2609.00,-0.0018
2608.00,-0.0018
2607.00,-0.0018
2606.00,-0.0018
2605.00,-0.0018
2604.00,-0.0018
2603.00,-0.0018
2602.00,-0.0018
2601.00,-0.0018
2600.00,-0.0018
2599.00,-0.0018
2598.00,-0.0018
2597.00,-0.0018
2596.00,-0.0018
2595.00,-0.0018
2594.00,-0.0018
2593.00,-0.0018
2592.00,-0.0019
2591.00,-0.0019
2590.00,-0.0019
2589.00,-0.0019
2588.00,-0.0019
2587.00,-0.0019
2586.00,-0.0019
2585.00,-0.0019
2584.00,-0.0019
2583.00,-0.0019
2582.00,-0.0019
2581.00,-0.0019
2580.00,-0.0019
2579.00,-0.0019
2578.00,-0.0019
2577.00,-0.0019
2576.00,-0.0019
2575.00,-0.0019
2574.00,-0.0019
2573.00,-0.0019
2572.00,-0.0019
2571.00,-0.0019
2570.00,-0.0019
2569.00,-0.0019
2568.00,-0.0018
2567.00,-0.0018
2566.00,-0.0018
2565.00,-0.0018
2564.00,-0.0018
2563.00,-0.0018
2562.00,-0.0018
2561.00,-0.0018
2560.00,-0.0018
2559.00,-0.0018
2558.00,-0.0018
2557.00,-0.0018
2556.00,-0.0018
2555.00,-0.0018
2554.00,-0.0018
2553.00,-0.0018
2552.00,-0.0018
2551.00,-0.0018
2550.00,-0.0018
2549.00,-0.0018
2548.00,-0.0018
2547.00,-0.0018
2546.00,-0.0018
2545.00,-0.0018
2544.00,-0.0018
2543.00,-0.0018
2542.00,-0.0018
2541.00,-0.0018
2540.00,-0.0018
2539.00,-0.0019
2538.00,-0.0019
2537.00,-0.0019
2536.00,-0.0019
2535.00,-0.0019
2534.00,-0.0019
2533.00,-0.0019
2532.00,-0.0019
2531.00,-0.0019
2530.00,-0.0019
2529.00,-0.0019
2528.00,-0.0019
2527.00,-0.0019
2526.00,-0.0019
2525.00,-0.0019
2524.00,-0.0019
2523.00,-0.0019
2522.00,-0.0019
2521.00,-0.0019
2520.00,-0.0019
2519.00,-0.0019
2518.00,-0.0018
2517.00,-0.0018
2516.00,-0.0018
2515.00,-0.0018
2514.00,-0.0018
2513.00,-0.0018
2512.00,-0.0018
2511.00,-0.0018
2510.00,-0.0018
2509.00,-0.0018
2508.00,-0.0018
2507.00,-0.0018
2506.00,-0.0018
2505.00,-0.0018
2504.00,-0.0018
2503.00,-0.0018
2502.00,-0.0018
2501.00,-0.0018
2500.00,-0.0018
2499.00,-0.0018
2498.00,-0.0018
2497.00,-0.0018
2496.00,-0.0018
2495.00,-0.0018
2494.00,-0.0018
2493.00,-0.0018
2492.00,-0.0018
2491.00,-0.0018
2490.00,-0.0018
2489.00,-0.0018
2488.00,-0.0018
2487.00,-0.0018
2486.00,-0.0018
2485.00,-0.0018
2484.00,-0.0018
2483.00,-0.0018
2482.00,-0.0018
2481.00,-0.0018
2480.00,-0.0018
2479.00,-0.0018
2478.00,-0.0018
2477.00,-0.0019
2476.00,-0.0019
2475.00,-0.0019
2474.00,-0.0019
2473.00,-0.0019
2472.00,-0.0019
2471.00,-0.0019
2470.00,-0.0018
2469.00,-0.0018
2468.00,-0.0018
2467.00,-0.0018
2466.00,-0.0018
2465.00,-0.0018
2464.00,-0.0018
2463.00,-0.0018
2462.00,-0.0018
2461.00,-0.0018
2460.00,-0.0018
2459.00,-0.0018
2458.00,-0.0018
2457.00,-0.0018
2456.00,-0.0018
2455.00,-0.0018
2454.00,-0.0018
2453.00,-0.0018
2452.00,-0.0018
2451.00,-0.0018
2450.00,-0.0018
2449.00,-0.0018
2448.00,-0.0018
2447.00,-0.0018
2446.00,-0.0018
2445.00,-0.0018
2444.00,-0.0018
2443.00,-0.0018
2442.00,-0.0018
2441.00,-0.0018
2440.00,-0.0018
2439.00,-0.0018
2438.00,-0.0018
2437.00,-0.0018
2436.00,-0.0018
2435.00,-0.0018
2434.00,-0.0018
2433.00,-0.0018
2432.00,-0.0018
2431.00,-0.0019
2430.00,-0.0019
2429.00,-0.0019
2428.00,-0.0019
2427.00,-0.0019
2426.00,-0.0019
2425.00,-0.0019
2424.00,-0.0019
2423.00,-0.0019
2422.00,-0.0019
2421.00,-0.0019
2420.00,-0.0019
2419.00,-0.0019
2418.00,-0.0019
2417.00,-0.0019
2416.00,-0.0019
2415.00,-0.0018
2414.00,-0.0018
2413.00,-0.0019
2412.00,-0.0019
2411.00,-0.0018
2410.00,-0.0018
2409.00,-0.0018
2408.00,-0.0018
2407.00,-0.0018
2406.00,-0.0018
2405.00,-0.0018
2404.00,-0.0018
2403.00,-0.0018
2402.00,-0.0018
2401.00,-0.0018
2400.00,-0.0018
2399.00,-0.0018
2398.00,-0.0018
2397.00,-0.0018
2396.00,-0.0018
2395.00,-0.0018
2394.00,-0.0018
2393.00,-0.0018
2392.00,-0.0018
2391.00,-0.0018
2390.00,-0.0018
2389.00,-0.0018
2388.00,-0.0019
2387.00,-0.0019
2386.00,-0.0019
2385.00,-0.0019
2384.00,-0.0019
2383.00,-0.0019
2382.00,-0.0019
2381.00,-0.0019
2380.00,-0.0019
2379.00,-0.0018
2378.00,-0.0018
2377.00,-0.0017
2376.00,-0.0017
2375.00,-0.0017
2374.00,-0.0018
2373.00,-0.0018
2372.00,-0.0018
2371.00,-0.0019
2370.00,-0.0019
2369.00,-0.0019
2368.00,-0.0019
2367.00,-0.0019
2366.00,-0.0019
2365.00,-0.0019
2364.00,-0.0019
2363.00,-0.0019
2362.00,-0.0019
2361.00,-0.0019
2360.00,-0.0019
2359.00,-0.0019
2358.00,-0.0019
2357.00,-0.0019
2356.00,-0.0019
2355.00,-0.0019
2354.00,-0.0018
2353.00,-0.0018
2352.00,-0.0018
2351.00,-0.0019
2350.00,-0.0020
2349.00,-0.0021
2348.00,-0.0021
2347.00,-0.0020
2346.00,-0.0019
2345.00,-0.0019
2344.00,-0.0019
2343.00,-0.0020
2342.00,-0.0020
2341.00,-0.0020
2340.00,-0.0020
2339.00,-0.0020
2338.00,-0.0020
2337.00,-0.0020
2336.00,-0.0019
2335.00,-0.0019
2334.00,-0.0019
2333.00,-0.0019
2332.00,-0.0019
2331.00,-0.0019
2330.00,-0.0019
2329.00,-0.0020
2328.00,-0.0020
2327.00,-0.0020
2326.00,-0.0020
2325.00,-0.0020
2324.00,-0.0020
2323.00,-0.0020
2322.00,-0.0020
2321.00,-0.0020
2320.00,-0.0020
2319.00,-0.0020
2318.00,-0.0020
2317.00,-0.0020
2316.00,-0.0020
2315.00,-0.0019
2314.00,-0.0019
2313.00,-0.0019
2312.00,-0.0019
2311.00,-0.0019
2310.00,-0.0020
2309.00,-0.0020
2308.00,-0.0020
2307.00,-0.0020
2306.00,-0.0019
2305.00,-0.0019
2304.00,-0.0019
2303.00,-0.0019
2302.00,-0.0019
2301.00,-0.0019
2300.00,-0.0019
2299.00,-0.0019
2298.00,-0.0019
2297.00,-0.0019
2296.00,-0.0019
2295.00,-0.0019
2294.00,-0.0019
2293.00,-0.0019
2292.00,-0.0019
2291.00,-0.0019
2290.00,-0.0019
2289.00,-0.0018
2288.00,-0.0018
2287.00,-0.0018
2286.00,-0.0018
2285.00,-0.0018
2284.00,-0.0018
2283.00,-0.0018
2282.00,-0.0018
2281.00,-0.0018
2280.00,-0.0018
2279.00,-0.0018
2278.00,-0.0018
2277.00,-0.0018
2276.00,-0.0018
2275.00,-0.0018
2274.00,-0.0018
2273.00,-0.0018
2272.00,-0.0018
2271.00,-0.0018
2270.00,-0.0018
2269.00,-0.0018
2268.00,-0.0019
2267.00,-0.0019
2266.00,-0.0019
2265.00,-0.0019
2264.00,-0.0019
2263.00,-0.0019
2262.00,-0.0019
2261.00,-0.0019
2260.00,-0.0019
2259.00,-0.0019
2258.00,-0.0019
2257.00,-0.0019
2256.00,-0.0019
2255.00,-0.0019
2254.00,-0.0019
2253.00,-0.0018
2252.00,-0.0019
2251.00,-0.0019
2250.00,-0.0019
2249.00,-0.0019
2248.00,-0.0018
2247.00,-0.0018
2246.00,-0.0018
2245.00,-0.0018
2244.00,-0.0018
2243.00,-0.0018
2242.00,-0.0018
2241.00,-0.0018
2240.00,-0.0018
2239.00,-0.0018
2238.00,-0.0018
2237.00,-0.0018
2236.00,-0.0018
2235.00,-0.0018
2234.00,-0.0018
2233.00,-0.0018
2232.00,-0.0018
2231.00,-0.0018
2230.00,-0.0018
2229.00,-0.0018
2228.00,-0.0018
2227.00,-0.0018
2226.00,-0.0018
2225.00,-0.0018
2224.00,-0.0018
2223.00,-0.0018
2222.00,-0.0018
2221.00,-0.0018
2220.00,-0.0018
2219.00,-0.0018
2218.00,-0.0018
2217.00,-0.0018
2216.00,-0.0018
2215.00,-0.0018
2214.00,-0.0018
2213.00,-0.0018
2212.00,-0.0018
2211.00,-0.0018
2210.00,-0.0018
2209.00,-0.0018
2208.00,-0.0018
2207.00,-0.0018
2206.00,-0.0018
2205.00,-0.0018
2204.00,-0.0018
2203.00,-0.0018
2202.00,-0.0018
2201.00,-0.0018
2200.00,-0.0018
2199.00,-0.0018
2198.00,-0.0018
2197.00,-0.0018
2196.00,-0.0018
2195.00,-0.0018
2194.00,-0.0018
2193.00,-0.0018
2192.00,-0.0018
2191.00,-0.0018
2190.00,-0.0018
2189.00,-0.0018
2188.00,-0.0018
2187.00,-0.0018
2186.00,-0.0018
2185.00,-0.0018
2184.00,-0.0018
2183.00,-0.0018
2182.00,-0.0018
2181.00,-0.0018
2180.00,-0.0018
2179.00,-0.0018
2178.00,-0.0018
2177.00,-0.0018
2176.00,-0.0018
2175.00,-0.0018
2174.00,-0.0018
2173.00,-0.0018
2172.00,-0.0018
2171.00,-0.0018
2170.00,-0.0018
2169.00,-0.0018
2168.00,-0.0018
2167.00,-0.0018
2166.00,-0.0018
2165.00,-0.0018
2164.00,-0.0018
2163.00,-0.0018
2162.00,-0.0018
2161.00,-0.0018
2160.00,-0.0018
2159.00,-0.0018
2158.00,-0.0019
2157.00,-0.0019
2156.00,-0.0019
2155.00,-0.0019
2154.00,-0.0019
2153.00,-0.0019
2152.00,-0.0019
2151.00,-0.0019
2150.00,-0.0019
2149.00,-0.0019
2148.00,-0.0018
2147.00,-0.0018
2146.00,-0.0018
2145.00,-0.0018
2144.00,-0.0018
2143.00,-0.0018
2142.00,-0.0018
2141.00,-0.0018
2140.00,-0.0018
2139.00,-0.0018
2138.00,-0.0018
2137.00,-0.0018
2136.00,-0.0018
2135.00,-0.0018
2134.00,-0.0018
2133.00,-0.0018
2132.00,-0.0018
2131.00,-0.0018
2130.00,-0.0018
2129.00,-0.0018
2128.00,-0.0018
2127.00,-0.0018
2126.00,-0.0018
2125.00,-0.0018
2124.00,-0.0018
2123.00,-0.0018
2122.00,-0.0018
2121.00,-0.0018
2120.00,-0.0018
2119.00,-0.0018
2118.00,-0.0018
2117.00,-0.0018
2116.00,-0.0018
2115.00,-0.0018
2114.00,-0.0018
2113.00,-0.0018
2112.00,-0.0018
2111.00,-0.0018
2110.00,-0.0018
2109.00,-0.0018
2108.00,-0.0018
2107.00,-0.0018
2106.00,-0.0018
2105.00,-0.0018
2104.00,-0.0018
2103.00,-0.0018
2102.00,-0.0019
2101.00,-0.0019
2100.00,-0.0019
2099.00,-0.0019
2098.00,-0.0019
2097.00,-0.0019
2096.00,-0.0019
2095.00,-0.0019
2094.00,-0.0019
2093.00,-0.0019
2092.00,-0.0019
2091.00,-0.0019
2090.00,-0.0019
2089.00,-0.0018
2088.00,-0.0018
2087.00,-0.0018
2086.00,-0.0018
2085.00,-0.0018
2084.00,-0.0018
2083.00,-0.0018
2082.00,-0.0018
2081.00,-0.0018
2080.00,-0.0018
2079.00,-0.0018
2078.00,-0.0018
2077.00,-0.0018
2076.00,-0.0018
2075.00,-0.0018
2074.00,-0.0018
2073.00,-0.0018
2072.00,-0.0018
2071.00,-0.0018
2070.00,-0.0018
2069.00,-0.0018
2068.00,-0.0018
2067.00,-0.0018
2066.00,-0.0018
2065.00,-0.0018
2064.00,-0.0018
2063.00,-0.0018
2062.00,-0.0018
2061.00,-0.0018
2060.00,-0.0018
2059.00,-0.0018
2058.00,-0.0018
2057.00,-0.0018
2056.00,-0.0018
2055.00,-0.0018
2054.00,-0.0018
2053.00,-0.0019
2052.00,-0.0019
2051.00,-0.0018
2050.00,-0.0018
2049.00,-0.0018
2048.00,-0.0019
2047.00,-0.0019
2046.00,-0.0019
2045.00,-0.0019
2044.00,-0.0019
2043.00,-0.0018
2042.00,-0.0018
2041.00,-0.0018
2040.00,-0.0018
2039.00,-0.0018
2038.00,-0.0018
2037.00,-0.0018
2036.00,-0.0018
2035.00,-0.0018
2034.00,-0.0018
2033.00,-0.0018
2032.00,-0.0018
2031.00,-0.0018
2030.00,-0.0018
2029.00,-0.0018
2028.00,-0.0018
2027.00,-0.0018
2026.00,-0.0018
2025.00,-0.0018
2024.00,-0.0018
2023.00,-0.0018
2022.00,-0.0018
2021.00,-0.0018
2020.00,-0.0018
2019.00,-0.0018
2018.00,-0.0018
2017.00,-0.0018
2016.00,-0.0018
2015.00,-0.0018
2014.00,-0.0018
2013.00,-0.0018
2012.00,-0.0018
2011.00,-0.0018
2010.00,-0.0018
2009.00,-0.0018
2008.00,-0.0018
2007.00,-0.0018
2006.00,-0.0018
2005.00,-0.0018
2004.00,-0.0018
2003.00,-0.0018
2002.00,-0.0018
2001.00,-0.0018
2000.00,-0.0018
1999.00,-0.0018
1998.00,-0.0018
1997.00,-0.0019
1996.00,-0.0019
1995.00,-0.0019
1994.00,-0.0019
1993.00,-0.0019
1992.00,-0.0019
1991.00,-0.0019
1990.00,-0.0019
1989.00,-0.0019
1988.00,-0.0018
1987.00,-0.0018
1986.00,-0.0018
1985.00,-0.0018
1984.00,-0.0018
1983.00,-0.0018
1982.00,-0.0018
1981.00,-0.0018
1980.00,-0.0018
1979.00,-0.0018
1978.00,-0.0018
1977.00,-0.0018
1976.00,-0.0018
1975.00,-0.0018
1974.00,-0.0018
1973.00,-0.0018
1972.00,-0.0018
1971.00,-0.0018
1970.00,-0.0018
1969.00,-0.0018
1968.00,-0.0018
1967.00,-0.0018
1966.00,-0.0018
1965.00,-0.0018
1964.00,-0.0018
1963.00,-0.0018
1962.00,-0.0018
1961.00,-0.0018
1960.00,-0.0018
1959.00,-0.0018
1958.00,-0.0018
1957.00,-0.0018
1956.00,-0.0018
1955.00,-0.0018
1954.00,-0.0018
1953.00,-0.0018
1952.00,-0.0018
1951.00,-0.0018
1950.00,-0.0018
1949.00,-0.0018
1948.00,-0.0018
1947.00,-0.0018
1946.00,-0.0018
1945.00,-0.0018
1944.00,-0.0018
1943.00,-0.0018
1942.00,-0.0018
1941.00,-0.0018
1940.00,-0.0018
1939.00,-0.0018
1938.00,-0.0018
1937.00,-0.0018
1936.00,-0.0018
1935.00,-0.0018
1934.00,-0.0018
1933.00,-0.0018
1932.00,-0.0018
1931.00,-0.0018
1930.00,-0.0018
1929.00,-0.0018
1928.00,-0.0018
1927.00,-0.0018
1926.00,-0.0018
1925.00,-0.0018
1924.00,-0.0018
1923.00,-0.0018
1922.00,-0.0018
1921.00,-0.0018
1920.00,-0.0018
1919.00,-0.0018
1918.00,-0.0018
1917.00,-0.0018
1916.00,-0.0018
1915.00,-0.0018
1914.00,-0.0018
1913.00,-0.0018
1912.00,-0.0018
1911.00,-0.0018
1910.00,-0.0018
1909.00,-0.0018
1908.00,-0.0018
1907.00,-0.0018
1906.00,-0.0018
1905.00,-0.0018
1904.00,-0.0018
1903.00,-0.0018
1902.00,-0.0018
1901.00,-0.0018
1900.00,-0.0018
1899.00,-0.0018
1898.00,-0.0018
1897.00,-0.0018
1896.00,-0.0018
1895.00,-0.0018
1894.00,-0.0018
1893.00,-0.0019
1892.00,-0.0019
1891.00,-0.0018
1890.00,-0.0018
1889.00,-0.0018
1888.00,-0.0018
1887.00,-0.0018
1886.00,-0.0018
1885.00,-0.0018
1884.00,-0.0018
1883.00,-0.0018
1882.00,-0.0018
1881.00,-0.0018
1880.00,-0.0018
1879.00,-0.0018
1878.00,-0.0018
1877.00,-0.0018
1876.00,-0.0018
1875.00,-0.0018
1874.00,-0.0018
1873.00,-0.0018
1872.00,-0.0018
1871.00,-0.0018
1870.00,-0.0018
1869.00,-0.0018
1868.00,-0.0018
1867.00,-0.0018
1866.00,-0.0018
1865.00,-0.0018
1864.00,-0.0018
1863.00,-0.0018
1862.00,-0.0018
1861.00,-0.0018
1860.00,-0.0018
1859.00,-0.0018
1858.00,-0.0018
1857.00,-0.0018
1856.00,-0.0018
1855.00,-0.0018
1854.00,-0.0018
1853.00,-0.0018
1852.00,-0.0018
1851.00,-0.0018
1850.00,-0.0018
1849.00,-0.0018
1848.00,-0.0018
1847.00,-0.0018
1846.00,-0.0018
1845.00,-0.0018
1844.00,-0.0018
1843.00,-0.0019
1842.00,-0.0019
1841.00,-0.0019
1840.00,-0.0019
1839.00,-0.0018
1838.00,-0.0018
1837.00,-0.0018
1836.00,-0.0019
1835.00,-0.0019
1834.00,-0.0019
1833.00,-0.0019
1832.00,-0.0019
1831.00,-0.0018
1830.00,-0.0018
1829.00,-0.0018
1828.00,-0.0018
1827.00,-0.0018
1826.00,-0.0018
1825.00,-0.0018
1824.00,-0.0018
1823.00,-0.0018
1822.00,-0.0018
1821.00,-0.0018
1820.00,-0.0018
1819.00,-0.0018
1818.00,-0.0018
1817.00,-0.0018
1816.00,-0.0018
1815.00,-0.0018
1814.00,-0.0018
1813.00,-0.0018
1812.00,-0.0018
1811.00,-0.0018
1810.00,-0.0018
1809.00,-0.0018
1808.00,-0.0018
1807.00,-0.0018
1806.00,-0.0018
1805.00,-0.0018
1804.00,-0.0018
1803.00,-0.0018
1802.00,-0.0018
1801.00,-0.0018
1800.00,-0.0018
1799.00,-0.0018
1798.00,-0.0018
1797.00,-0.0019
1796.00,-0.0019
1795.00,-0.0019
1794.00,-0.0019
1793.00,-0.0019
1792.00,-0.0019
1791.00,-0.0019
1790.00,-0.0019
1789.00,-0.0018
1788.00,-0.0018
1787.00,-0.0018
1786.00,-0.0018
1785.00,-0.0018
1784.00,-0.0018
1783.00,-0.0018
1782.00,-0.0018
1781.00,-0.0019
1780.00,-0.0019
1779.00,-0.0019
1778.00,-0.0019
1777.00,-0.0019
1776.00,-0.0019
1775.00,-0.0019
1774.00,-0.0019
1773.00,-0.0018
1772.00,-0.0018
1771.00,-0.0018
1770.00,-0.0018
1769.00,-0.0018
1768.00,-0.0018
1767.00,-0.0018
1766.00,-0.0018
1765.00,-0.0018
1764.00,-0.0018
1763.00,-0.0018
1762.00,-0.0018
1761.00,-0.0018
1760.00,-0.0018
1759.00,-0.0018
1758.00,-0.0018
1757.00,-0.0018
1756.00,-0.0018
1755.00,-0.0018
1754.00,-0.0018
1753.00,-0.0018
1752.00,-0.0018
1751.00,-0.0018
1750.00,-0.0018
1749.00,-0.0018
1748.00,-0.0018
1747.00,-0.0018
1746.00,-0.0018
1745.00,-0.0018
1744.00,-0.0018
1743.00,-0.0019
1742.00,-0.0019
1741.00,-0.0019
1740.00,-0.0019
1739.00,-0.0019
1738.00,-0.0019
1737.00,-0.0019
1736.00,-0.0019
1735.00,-0.0019
1734.00,-0.0019
1733.00,-0.0019
1732.00,-0.0019
1731.00,-0.0018
1730.00,-0.0018
1729.00,-0.0018
1728.00,-0.0018
1727.00,-0.0019
1726.00,-0.0019
1725.00,-0.0019
1724.00,-0.0019
1723.00,-0.0019
1722.00,-0.0019
1721.00,-0.0019
1720.00,-0.0019
1719.00,-0.0018
1718.00,-0.0018
1717.00,-0.0019
1716.00,-0.0018
1715.00,-0.0018
1714.00,-0.0018
1713.00,-0.0018
1712.00,-0.0018
1711.00,-0.0018
1710.00,-0.0018
1709.00,-0.0018
1708.00,-0.0018
1707.00,-0.0018
1706.00,-0.0018
1705.00,-0.0018
1704.00,-0.0018
1703.00,-0.0018
1702.00,-0.0018
1701.00,-0.0018
1700.00,-0.0018
1699.00,-0.0018
1698.00,-0.0018
1697.00,-0.0018
1696.00,-0.0018
1695.00,-0.0018
1694.00,-0.0018
1693.00,-0.0018
1692.00,-0.0018
1691.00,-0.0018
1690.00,-0.0018
1689.00,-0.0018
1688.00,-0.0018
1687.00,-0.0018
1686.00,-0.0018
1685.00,-0.0018
1684.00,-0.0018
1683.00,-0.0018
1682.00,-0.0018
1681.00,-0.0018
1680.00,-0.0018
1679.00,-0.0019
1678.00,-0.0019
1677.00,-0.0018
1676.00,-0.0018
1675.00,-0.0018
1674.00,-0.0018
1673.00,-0.0019
1672.00,-0.0019
1671.00,-0.0019
1670.00,-0.0018
1669.00,-0.0018
1668.00,-0.0018
1667.00,-0.0019
1666.00,-0.0018
1665.00,-0.0018
1664.00,-0.0018
1663.00,-0.0019
1662.00,-0.0018
1661.00,-0.0018
1660.00,-0.0018
1659.00,-0.0018
1658.00,-0.0018
1657.00,-0.0018
1656.00,-0.0018
1655.00,-0.0018
1654.00,-0.0018
1653.00,-0.0018
1652.00,-0.0018
1651.00,-0.0018
1650.00,-0.0018
1649.00,-0.0018
1648.00,-0.0018
1647.00,-0.0018
1646.00,-0.0018
1645.00,-0.0018
1644.00,-0.0018
1643.00,-0.0018
1642.00,-0.0018
1641.00,-0.0018
1640.00,-0.0018
1639.00,-0.0018
1638.00,-0.0019
1637.00,-0.0018
1636.00,-0.0018
1635.00,-0.0018
1634.00,-0.0018
1633.00,-0.0018
1632.00,-0.0018
1631.00,-0.0018
1630.00,-0.0019
1629.00,-0.0019
1628.00,-0.0019
1627.00,-0.0019
1626.00,-0.0019
1625.00,-0.0019
1624.00,-0.0019
1623.00,-0.0019
1622.00,-0.0019
1621.00,-0.0019
1620.00,-0.0019
1619.00,-0.0019
1618.00,-0.0019
1617.00,-0.0019
1616.00,-0.0019
1615.00,-0.0019
1614.00,-0.0019
1613.00,-0.0018
1612.00,-0.0018
1611.00,-0.0019
1610.00,-0.0019
1609.00,-0.0019
1608.00,-0.0019
1607.00,-0.0019
1606.00,-0.0018
1605.00,-0.0018
1604.00,-0.0018
1603.00,-0.0018
1602.00,-0.0018
1601.00,-0.0018
1600.00,-0.0018
1599.00,-0.0018
1598.00,-0.0018
1597.00,-0.0018
1596.00,-0.0018
1595.00,-0.0018
1594.00,-0.0018
1593.00,-0.0018
1592.00,-0.0018
1591.00,-0.0018
1590.00,-0.0018
1589.00,-0.0018
1588.00,-0.0018
1587.00,-0.0018
1586.00,-0.0018
1585.00,-0.0018
1584.00,-0.0019
1583.00,-0.0019
1582.00,-0.0019
1581.00,-0.0019
1580.00,-0.0019
1579.00,-0.0019
1578.00,-0.0019
1577.00,-0.0019
1576.00,-0.0019
1575.00,-0.0019
1574.00,-0.0019
1573.00,-0.0019
1572.00,-0.0019
1571.00,-0.0019
1570.00,-0.0019
1569.00,-0.0019
1568.00,-0.0019
1567.00,-0.0019
1566.00,-0.0019
1565.00,-0.0019
1564.00,-0.0019
1563.00,-0.0019
1562.00,-0.0019
1561.00,-0.0019
1560.00,-0.0019
1559.00,-0.0019
1558.00,-0.0019
1557.00,-0.0019
1556.00,-0.0018
1555.00,-0.0018
1554.00,-0.0018
1553.00,-0.0018
1552.00,-0.0019
1551.00,-0.0018
1550.00,-0.0018
1549.00,-0.0018
1548.00,-0.0018
1547.00,-0.0018
1546.00,-0.0018
1545.00,-0.0018
1544.00,-0.0018
1543.00,-0.0018
1542.00,-0.0019
1541.00,-0.0019
1540.00,-0.0018
1539.00,-0.0018
1538.00,-0.0018
1537.00,-0.0018
1536.00,-0.0018
1535.00,-0.0018
1534.00,-0.0018
1533.00,-0.0018
1532.00,-0.0018
1531.00,-0.0019
1530.00,-0.0019
1529.00,-0.0019
1528.00,-0.0019
1527.00,-0.0019
1526.00,-0.0019
1525.00,-0.0019
1524.00,-0.0019
1523.00,-0.0019
1522.00,-0.0019
1521.00,-0.0019
1520.00,-0.0019
1519.00,-0.0018
1518.00,-0.0018
1517.00,-0.0019
1516.00,-0.0019
1515.00,-0.0019
1514.00,-0.0019
1513.00,-0.0019
1512.00,-0.0019
1511.00,-0.0019
1510.00,-0.0019
1509.00,-0.0019
1508.00,-0.0019
1507.00,-0.0018
1506.00,-0.0018
1505.00,-0.0018
1504.00,-0.0018
1503.00,-0.0018
1502.00,-0.0019
1501.00,-0.0019
1500.00,-0.0019
1499.00,-0.0019
1498.00,-0.0019
1497.00,-0.0018
1496.00,-0.0018
1495.00,-0.0018
1494.00,-0.0018
1493.00,-0.0018
1492.00,-0.0018
1491.00,-0.0018
1490.00,-0.0018
1489.00,-0.0018
1488.00,-0.0018
1487.00,-0.0018
1486.00,-0.0018
1485.00,-0.0018
1484.00,-0.0018
1483.00,-0.0018
1482.00,-0.0018
1481.00,-0.0018
1480.00,-0.0018
1479.00,-0.0018
1478.00,-0.0018
1477.00,-0.0018
1476.00,-0.0019
1475.00,-0.0019
1474.00,-0.0019
1473.00,-0.0019
1472.00,-0.0018
1471.00,-0.0019
1470.00,-0.0019
1469.00,-0.0019
1468.00,-0.0019
1467.00,-0.0019
1466.00,-0.0019
1465.00,-0.0019
1464.00,-0.0019
1463.00,-0.0019
1462.00,-0.0019
1461.00,-0.0019
1460.00,-0.0019
1459.00,-0.0019
1458.00,-0.0019
1457.00,-0.0018
1456.00,-0.0018
1455.00,-0.0018
1454.00,-0.0018
1453.00,-0.0018
1452.00,-0.0018
1451.00,-0.0018
1450.00,-0.0018
1449.00,-0.0018
1448.00,-0.0018
1447.00,-0.0018
1446.00,-0.0018
1445.00,-0.0018
1444.00,-0.0018
1443.00,-0.0018
1442.00,-0.0018
1441.00,-0.0018
1440.00,-0.0018
1439.00,-0.0018
1438.00,-0.0018
1437.00,-0.0018
1436.00,-0.0018
1435.00,-0.0018
1434.00,-0.0018
1433.00,-0.0018
1432.00,-0.0018
1431.00,-0.0018
1430.00,-0.0018
1429.00,-0.0018
1428.00,-0.0018
1427.00,-0.0018
1426.00,-0.0018
1425.00,-0.0018
1424.00,-0.0018
1423.00,-0.0018
1422.00,-0.0018
1421.00,-0.0018
1420.00,-0.0018
1419.00,-0.0018
1418.00,-0.0018
1417.00,-0.0019
1416.00,-0.0019
1415.00,-0.0019
1414.00,-0.0019
1413.00,-0.0019
1412.00,-0.0019
1411.00,-0.0019
1410.00,-0.0019
1409.00,-0.0019
1408.00,-0.0019
1407.00,-0.0019
1406.00,-0.0019
1405.00,-0.0018
1404.00,-0.0018
1403.00,-0.0018
1402.00,-0.0018
1401.00,-0.0018
1400.00,-0.0018
1399.00,-0.0018
1398.00,-0.0018
1397.00,-0.0018
1396.00,-0.0018
1395.00,-0.0018
1394.00,-0.0018
1393.00,-0.0018
1392.00,-0.0018
1391.00,-0.0018
1390.00,-0.0018
1389.00,-0.0018
1388.00,-0.0018
1387.00,-0.0018
1386.00,-0.0018
1385.00,-0.0018
1384.00,-0.0018
1383.00,-0.0018
1382.00,-0.0018
1381.00,-0.0018
1380.00,-0.0018
1379.00,-0.0018
1378.00,-0.0018
1377.00,-0.0018
1376.00,-0.0018
1375.00,-0.0018
1374.00,-0.0018
1373.00,-0.0018
1372.00,-0.0018
1371.00,-0.0018
1370.00,-0.0018
1369.00,-0.0018
1368.00,-0.0018
1367.00,-0.0018
1366.00,-0.0018
1365.00,-0.0018
1364.00,-0.0018
1363.00,-0.0018
1362.00,-0.0018
1361.00,-0.0018
1360.00,-0.0019
1359.00,-0.0019
1358.00,-0.0019
1357.00,-0.0019
1356.00,-0.0019
1355.00,-0.0019
1354.00,-0.0019
1353.00,-0.0019
1352.00,-0.0018
1351.00,-0.0018
1350.00,-0.0018
1349.00,-0.0018
1348.00,-0.0018
1347.00,-0.0018
1346.00,-0.0018
1345.00,-0.0018
1344.00,-0.0018
1343.00,-0.0018
1342.00,-0.0018
1341.00,-0.0018
1340.00,-0.0018
1339.00,-0.0018
1338.00,-0.0018
1337.00,-0.0018
1336.00,-0.0018
1335.00,-0.0018
1334.00,-0.0018
1333.00,-0.0018
1332.00,-0.0018
1331.00,-0.0018
1330.00,-0.0018
1329.00,-0.0018
1328.00,-0.0018
1327.00,-0.0018
1326.00,-0.0018
1325.00,-0.0018
1324.00,-0.0018
1323.00,-0.0018
1322.00,-0.0018
1321.00,-0.0018
1320.00,-0.0018
1319.00,-0.0018
1318.00,-0.0018
1317.00,-0.0018
1316.00,-0.0018
1315.00,-0.0018
1314.00,-0.0018
1313.00,-0.0018
1312.00,-0.0018
1311.00,-0.0018
1310.00,-0.0018
1309.00,-0.0018
1308.00,-0.0018
1307.00,-0.0018
1306.00,-0.0018
1305.00,-0.0018
1304.00,-0.0018
1303.00,-0.0018
1302.00,-0.0018
1301.00,-0.0018
1300.00,-0.0018
1299.00,-0.0018
1298.00,-0.0018
1297.00,-0.0018
1296.00,-0.0018
1295.00,-0.0018
1294.00,-0.0018
1293.00,-0.0018
1292.00,-0.0018
1291.00,-0.0018
1290.00,-0.0018
1289.00,-0.0018
1288.00,-0.0018
1287.00,-0.0018
1286.00,-0.0018
1285.00,-0.0018
1284.00,-0.0018
1283.00,-0.0018
1282.00,-0.0018
1281.00,-0.0018
1280.00,-0.0018
1279.00,-0.0018
1278.00,-0.0018
1277.00,-0.0018
1276.00,-0.0018
1275.00,-0.0018
1274.00,-0.0018
1273.00,-0.0018
1272.00,-0.0018
1271.00,-0.0018
1270.00,-0.0018
1269.00,-0.0018
1268.00,-0.0018
1267.00,-0.0018
1266.00,-0.0018
1265.00,-0.0018
1264.00,-0.0018
1263.00,-0.0018
1262.00,-0.0019
1261.00,-0.0018
1260.00,-0.0018
1259.00,-0.0018
1258.00,-0.0018
1257.00,-0.0018
1256.00,-0.0018
1255.00,-0.0018
1254.00,-0.0018
1253.00,-0.0018
1252.00,-0.0018
1251.00,-0.0018
1250.00,-0.0018
1249.00,-0.0018
1248.00,-0.0018
1247.00,-0.0018
1246.00,-0.0018
1245.00,-0.0018
1244.00,-0.0018
1243.00,-0.0018
1242.00,-0.0018
1241.00,-0.0018
1240.00,-0.0018
1239.00,-0.0018
1238.00,-0.0018
1237.00,-0.0018
1236.00,-0.0018
1235.00,-0.0018
1234.00,-0.0018
1233.00,-0.0018
1232.00,-0.0018
1231.00,-0.0018
1230.00,-0.0018
1229.00,-0.0018
1228.00,-0.0018
1227.00,-0.0018
1226.00,-0.0018
1225.00,-0.0018
1224.00,-0.0018
1223.00,-0.0018
1222.00,-0.0018
1221.00,-0.0018
1220.00,-0.0018
1219.00,-0.0018
1218.00,-0.0018
1217.00,-0.0018
1216.00,-0.0018
1215.00,-0.0018
1214.00,-0.0018
1213.00,-0.0018
1212.00,-0.0018
1211.00,-0.0018
1210.00,-0.0018
1209.00,-0.0018
1208.00,-0.0018
1207.00,-0.0018
1206.00,-0.0018
1205.00,-0.0018
1204.00,-0.0018
1203.00,-0.0018
1202.00,-0.0018
1201.00,-0.0018
1200.00,-0.0018
1199.00,-0.0018
1198.00,-0.0018
1197.00,-0.0018
1196.00,-0.0018
1195.00,-0.0018
1194.00,-0.0018
1193.00,-0.0018
1192.00,-0.0018
1191.00,-0.0018
1190.00,-0.0018
1189.00,-0.0018
1188.00,-0.0018
1187.00,-0.0018
1186.00,-0.0018
1185.00,-0.0018
1184.00,-0.0018
1183.00,-0.0018
1182.00,-0.0018
1181.00,-0.0018
1180.00,-0.0018
1179.00,-0.0018
1178.00,-0.0018
1177.00,-0.0018
1176.00,-0.0018
1175.00,-0.0018
1174.00,-0.0018
1173.00,-0.0018
1172.00,-0.0018
1171.00,-0.0018
1170.00,-0.0018
1169.00,-0.0018
1168.00,-0.0018
1167.00,-0.0018
1166.00,-0.0018
1165.00,-0.0018
1164.00,-0.0018
1163.00,-0.0018
1162.00,-0.0018
1161.00,-0.0018
1160.00,-0.0018
1159.00,-0.0018
1158.00,-0.0018
1157.00,-0.0018
1156.00,-0.0018
1155.00,-0.0018
1154.00,-0.0018
1153.00,-0.0018
1152.00,-0.0018
1151.00,-0.0018
1150.00,-0.0018
1149.00,-0.0018
1148.00,-0.0018
1147.00,-0.0018
1146.00,-0.0018
1145.00,-0.0018
1144.00,-0.0018
1143.00,-0.0018
1142.00,-0.0018
1141.00,-0.0018
1140.00,-0.0018
1139.00,-0.0018
1138.00,-0.0018
1137.00,-0.0018
1136.00,-0.0018
1135.00,-0.0018
1134.00,-0.0018
1133.00,-0.0018
1132.00,-0.0018
1131.00,-0.0018
1130.00,-0.0018
1129.00,-0.0018
1128.00,-0.0018
1127.00,-0.0018
1126.00,-0.0018
1125.00,-0.0018
1124.00,-0.0018
1123.00,-0.0018
1122.00,-0.0018
1121.00,-0.0018
1120.00,-0.0018
1119.00,-0.0018
1118.00,-0.0018
1117.00,-0.0018
1116.00,-0.0018
1115.00,-0.0018
1114.00,-0.0018
1113.00,-0.0018
1112.00,-0.0018
1111.00,-0.0018
1110.00,-0.0018
1109.00,-0.0018
1108.00,-0.0018
1107.00,-0.0018
1106.00,-0.0018
1105.00,-0.0018
1104.00,-0.0018
1103.00,-0.0018
1102.00,-0.0018
1101.00,-0.0018
1100.00,-0.0018
1099.00,-0.0018
1098.00,-0.0018
1097.00,-0.0018
1096.00,-0.0018
1095.00,-0.0018
1094.00,-0.0018
1093.00,-0.0018
1092.00,-0.0018
1091.00,-0.0018
1090.00,-0.0018
1089.00,-0.0019
1088.00,-0.0019
1087.00,-0.0019
1086.00,-0.0019
1085.00,-0.0019
1084.00,-0.0019
1083.00,-0.0019
1082.00,-0.0019
1081.00,-0.0019
1080.00,-0.0018
1079.00,-0.0018
1078.00,-0.0019
1077.00,-0.0019
1076.00,-0.0019
1075.00,-0.0019
1074.00,-0.0019
1073.00,-0.0019
1072.00,-0.0019
1071.00,-0.0019
1070.00,-0.0018
1069.00,-0.0018
1068.00,-0.0018
1067.00,-0.0018
1066.00,-0.0018
1065.00,-0.0018
1064.00,-0.0018
1063.00,-0.0018
1062.00,-0.0018
1061.00,-0.0018
1060.00,-0.0018
1059.00,-0.0018
1058.00,-0.0018
1057.00,-0.0019
1056.00,-0.0019
1055.00,-0.0019
1054.00,-0.0018
1053.00,-0.0018
1052.00,-0.0018
1051.00,-0.0018
1050.00,-0.0018
1049.00,-0.0018
1048.00,-0.0019
1047.00,-0.0019
1046.00,-0.0019
1045.00,-0.0019
1044.00,-0.0019
1043.00,-0.0019
1042.00,-0.0019
1041.00,-0.0019
1040.00,-0.0019
1039.00,-0.0019
1038.00,-0.0019
1037.00,-0.0019
1036.00,-0.0019
1035.00,-0.0019
1034.00,-0.0019
1033.00,-0.0019
1032.00,-0.0019
1031.00,-0.0019
1030.00,-0.0019
1029.00,-0.0019
1028.00,-0.0019
1027.00,-0.0019
1026.00,-0.0018
1025.00,-0.0018
1024.00,-0.0019
1023.00,-0.0019
1022.00,-0.0019
1021.00,-0.0019
1020.00,-0.0019
1019.00,-0.0019
1018.00,-0.0019
1017.00,-0.0018
1016.00,-0.0018
1015.00,-0.0018
1014.00,-0.0018
1013.00,-0.0018
1012.00,-0.0018
1011.00,-0.0018
1010.00,-0.0018
1009.00,-0.0018
1008.00,-0.0018
1007.00,-0.0018
1006.00,-0.0018
1005.00,-0.0018
1004.00,-0.0018
1003.00,-0.0018
1002.00,-0.0018
1001.00,-0.0018
1000.00,-0.0018
999.00,-0.0018
998.00,-0.0018
997.00,-0.0018
996.00,-0.0018
995.00,-0.0018
994.00,-0.0018
993.00,-0.0018
992.00,-0.0018
991.00,-0.0018
990.00,-0.0018
989.00,-0.0018
988.00,-0.0018
987.00,-0.0018
986.00,-0.0018
985.00,-0.0018
984.00,-0.0018
983.00,-0.0018
982.00,-0.0019
981.00,-0.0019
980.00,-0.0019
979.00,-0.0019
978.00,-0.0019
977.00,-0.0019
976.00,-0.0019
975.00,-0.0019
974.00,-0.0018
973.00,-0.0018
972.00,-0.0018
971.00,-0.0018
970.00,-0.0018
969.00,-0.0018
968.00,-0.0018
967.00,-0.0018
966.00,-0.0018
965.00,-0.0018
964.00,-0.0018
963.00,-0.0018
962.00,-0.0018
961.00,-0.0018
960.00,-0.0018
959.00,-0.0018
958.00,-0.0018
957.00,-0.0018
956.00,-0.0018
955.00,-0.0018
954.00,-0.0018
953.00,-0.0018
952.00,-0.0018
951.00,-0.0018
950.00,-0.0018
949.00,-0.0018
948.00,-0.0018
947.00,-0.0018
946.00,-0.0018
945.00,-0.0019
944.00,-0.0019
943.00,-0.0019
942.00,-0.0019
941.00,-0.0018
940.00,-0.0018
939.00,-0.0018
938.00,-0.0018
937.00,-0.0018
936.00,-0.0018
935.00,-0.0018
934.00,-0.0018
933.00,-0.0018
932.00,-0.0018
931.00,-0.0018
930.00,-0.0018
929.00,-0.0018
928.00,-0.0018
927.00,-0.0018
926.00,-0.0018
925.00,-0.0018
924.00,-0.0018
923.00,-0.0019
922.00,-0.0018
921.00,-0.0018
920.00,-0.0018
919.00,-0.0018
918.00,-0.0018
917.00,-0.0018
916.00,-0.0018
915.00,-0.0019
914.00,-0.0019
913.00,-0.0018
912.00,-0.0018
911.00,-0.0018
910.00,-0.0018
909.00,-0.0018
908.00,-0.0018
907.00,-0.0018
906.00,-0.0018
905.00,-0.0018
904.00,-0.0018
903.00,-0.0018
902.00,-0.0018
901.00,-0.0018
900.00,-0.0018
899.00,-0.0018
898.00,-0.0018
897.00,-0.0018
896.00,-0.0018
895.00,-0.0018
894.00,-0.0018
893.00,-0.0018
892.00,-0.0018
891.00,-0.0019
890.00,-0.0019
889.00,-0.0019
888.00,-0.0019
887.00,-0.0019
886.00,-0.0019
885.00,-0.0018
884.00,-0.0018
883.00,-0.0018
882.00,-0.0018
881.00,-0.0018
880.00,-0.0018
879.00,-0.0018
878.00,-0.0018
877.00,-0.0018
876.00,-0.0018
875.00,-0.0018
874.00,-0.0019
873.00,-0.0019
872.00,-0.0018
871.00,-0.0018
870.00,-0.0018
869.00,-0.0018
868.00,-0.0019
867.00,-0.0019
866.00,-0.0019
865.00,-0.0019
864.00,-0.0019
863.00,-0.0019
862.00,-0.0019
861.00,-0.0019
860.00,-0.0019
859.00,-0.0018
858.00,-0.0018
857.00,-0.0018
856.00,-0.0018
855.00,-0.0018
854.00,-0.0018
853.00,-0.0018
852.00,-0.0018
851.00,-0.0018
850.00,-0.0018
849.00,-0.0018
848.00,-0.0018
847.00,-0.0018
846.00,-0.0018
845.00,-0.0018
844.00,-0.0018
843.00,-0.0018
842.00,-0.0018
841.00,-0.0018
840.00,-0.0018
839.00,-0.0018
838.00,-0.0018
837.00,-0.0018
836.00,-0.0018
835.00,-0.0018
834.00,-0.0018
833.00,-0.0018
832.00,-0.0019
831.00,-0.0019
830.00,-0.0019
829.00,-0.0019
828.00,-0.0019
827.00,-0.0018
826.00,-0.0018
825.00,-0.0018
824.00,-0.0018
823.00,-0.0018
822.00,-0.0019
821.00,-0.0019
820.00,-0.0019
819.00,-0.0019
818.00,-0.0019
817.00,-0.0019
816.00,-0.0019
815.00,-0.0019
814.00,-0.0018
813.00,-0.0018
812.00,-0.0018
811.00,-0.0018
810.00,-0.0018
809.00,-0.0018
808.00,-0.0018
807.00,-0.0018
806.00,-0.0019
805.00,-0.0019
804.00,-0.0019
803.00,-0.0019
802.00,-0.0019
801.00,-0.0019
800.00,-0.0019
799.00,-0.0019
798.00,-0.0019
797.00,-0.0018
796.00,-0.0018
795.00,-0.0018
794.00,-0.0018
793.00,-0.0018
792.00,-0.0018
791.00,-0.0018
790.00,-0.0018
789.00,-0.0018
788.00,-0.0018
787.00,-0.0018
786.00,-0.0018
785.00,-0.0018
784.00,-0.0018
783.00,-0.0018
782.00,-0.0018
781.00,-0.0018
780.00,-0.0018
779.00,-0.0018
778.00,-0.0018
777.00,-0.0018
776.00,-0.0018
775.00,-0.0018
774.00,-0.0018
773.00,-0.0018
772.00,-0.0018
771.00,-0.0019
770.00,-0.0019
769.00,-0.0018
768.00,-0.0018
767.00,-0.0018
766.00,-0.0018
765.00,-0.0018
764.00,-0.0018
763.00,-0.0018
762.00,-0.0018
761.00,-0.0019
760.00,-0.0019
759.00,-0.0019
758.00,-0.0019
757.00,-0.0018
756.00,-0.0018
755.00,-0.0018
754.00,-0.0018
753.00,-0.0018
752.00,-0.0018
751.00,-0.0018
750.00,-0.0019
749.00,-0.0018
748.00,-0.0018
747.00,-0.0018
746.00,-0.0018
745.00,-0.0018
744.00,-0.0018
743.00,-0.0018
742.00,-0.0018
741.00,-0.0018
740.00,-0.0018
739.00,-0.0018
738.00,-0.0018
737.00,-0.0018
736.00,-0.0018
735.00,-0.0018
734.00,-0.0018
733.00,-0.0018
732.00,-0.0018
731.00,-0.0018
730.00,-0.0018
729.00,-0.0018
728.00,-0.0018
727.00,-0.0018
726.00,-0.0018
725.00,-0.0018
724.00,-0.0018
723.00,-0.0018
722.00,-0.0018
721.00,-0.0018
720.00,-0.0018
719.00,-0.0018
718.00,-0.0018
717.00,-0.0018
716.00,-0.0018
715.00,-0.0018
714.00,-0.0018
713.00,-0.0018
712.00,-0.0018
711.00,-0.0018
710.00,-0.0018
709.00,-0.0019
708.00,-0.0019
707.00,-0.0019
706.00,-0.0018
705.00,-0.0018
704.00,-0.0018
703.00,-0.0018
702.00,-0.0018
701.00,-0.0018
700.00,-0.0018
699.00,-0.0018
698.00,-0.0018
697.00,-0.0018
696.00,-0.0018
695.00,-0.0018
694.00,-0.0018
693.00,-0.0018
692.00,-0.0018
691.00,-0.0018
690.00,-0.0018
689.00,-0.0018
688.00,-0.0018
687.00,-0.0018
686.00,-0.0017
685.00,-0.0017
684.00,-0.0017
683.00,-0.0017
682.00,-0.0017
681.00,-0.0017
680.00,-0.0017
679.00,-0.0017
678.00,-0.0017
677.00,-0.0017
676.00,-0.0017
675.00,-0.0017
674.00,-0.0018
673.00,-0.0017
672.00,-0.0017
671.00,-0.0015
670.00,-0.0012
669.00,-0.0007
668.00,-0.0004
667.00,-0.0006
666.00,-0.0011
665.00,-0.0014
664.00,-0.0017
663.00,-0.0018
662.00,-0.0018
661.00,-0.0018
660.00,-0.0018
659.00,-0.0017
658.00,-0.0017
657.00,-0.0017
656.00,-0.0017
655.00,-0.0017
654.00,-0.0017
653.00,-0.0017
652.00,-0.0018
651.00,-0.0018
650.00,-0.0018
649.00,-0.0018
648.00,-0.0018
647.00,-0.0018
646.00,-0.0018
645.00,-0.0018
644.00,-0.0018
643.00,-0.0018
642.00,-0.0018
641.00,-0.0018
640.00,-0.0018
639.00,-0.0018
638.00,-0.0018
637.00,-0.0018
636.00,-0.0018
635.00,-0.0018
634.00,-0.0018
633.00,-0.0018
632.00,-0.0019
631.00,-0.0019
630.00,-0.0019
629.00,-0.0019
628.00,-0.0019
627.00,-0.0019
626.00,-0.0018
625.00,-0.0018
624.00,-0.0018
623.00,-0.0018
622.00,-0.0019
621.00,-0.0019
620.00,-0.0019
619.00,-0.0019
618.00,-0.0019
617.00,-0.0018
616.00,-0.0018
615.00,-0.0018
614.00,-0.0018
613.00,-0.0018
612.00,-0.0018
611.00,-0.0019
610.00,-0.0019
609.00,-0.0019
608.00,-0.0019
607.00,-0.0019
606.00,-0.0018
605.00,-0.0018
604.00,-0.0017
603.00,-0.0018
602.00,-0.0018
601.00,-0.0019
600.00,-0.0020
599.00,-0.0019
598.00,-0.0018
597.00,-0.0017
596.00,-0.0016
595.00,-0.0017
594.00,-0.0017
593.00,-0.0018
592.00,-0.0018
591.00,-0.0018
590.00,-0.0018
589.00,-0.0018
588.00,-0.0018
587.00,-0.0018
586.00,-0.0017
585.00,-0.0017
584.00,-0.0018
583.00,-0.0018
582.00,-0.0018
581.00,-0.0018
580.00,-0.0018
579.00,-0.0019
578.00,-0.0019
577.00,-0.0019
576.00,-0.0019
575.00,-0.0018
574.00,-0.0017
573.00,-0.0017
572.00,-0.0017
571.00,-0.0018
570.00,-0.0018
569.00,-0.0018
568.00,-0.0019
567.00,-0.0019
566.00,-0.0019
565.00,-0.0018
564.00,-0.0018
563.00,-0.0017
562.00,-0.0017
561.00,-0.0018
560.00,-0.0018
559.00,-0.0019
558.00,-0.0019
557.00,-0.0019
556.00,-0.0018
555.00,-0.0018
554.00,-0.0018
553.00,-0.0018
552.00,-0.0018
551.00,-0.0018
550.00,-0.0017
549.00,-0.0017
548.00,-0.0017
547.00,-0.0017
546.00,-0.0017
545.00,-0.0018
544.00,-0.0018
543.00,-0.0018
542.00,-0.0019
541.00,-0.0019
540.00,-0.0019
539.00,-0.0020
538.00,-0.0019
537.00,-0.0019
536.00,-0.0019
535.00,-0.0018
534.00,-0.0018
533.00,-0.0018
532.00,-0.0018
531.00,-0.0019
530.00,-0.0019
529.00,-0.0019
528.00,-0.0018
527.00,-0.0018
526.00,-0.0018
525.00,-0.0018
524.00,-0.0018
523.00,-0.0018
522.00,-0.0017
521.00,-0.0017
520.00,-0.0018
519.00,-0.0018
518.00,-0.0019
517.00,-0.0019
516.00,-0.0018
515.00,-0.0018
514.00,-0.0018
513.00,-0.0018
512.00,-0.0019
511.00,-0.0019
510.00,-0.0019
509.00,-0.0019
508.00,-0.0019
507.00,-0.0019
506.00,-0.0019
505.00,-0.0018
504.00,-0.0018
503.00,-0.0019
502.00,-0.0020
501.00,-0.0020
500.00,-0.0020
